Time (s),Temperature (K),Mass (mg)
0.000,297.000,3.904
20.843,297.500,3.904
34.356,298.000,3.904
45.065,298.500,3.902
54.241,299.000,3.903
62.341,299.500,3.903
69.692,300.000,3.903
76.523,300.500,3.903
82.895,301.000,3.903
88.921,301.500,3.903
94.669,302.000,3.902
100.146,302.500,3.902
105.429,303.000,3.902
110.515,303.500,3.901
115.435,304.000,3.903
120.216,304.500,3.903
124.889,305.000,3.904
129.448,305.500,3.903
133.871,306.000,3.903
138.242,306.500,3.906
142.483,307.000,3.905
146.650,307.500,3.907
150.777,308.000,3.906
154.809,308.500,3.906
158.794,309.000,3.905
162.730,309.500,3.906
166.601,310.000,3.903
170.425,310.500,3.904
174.232,311.000,3.902
177.954,311.500,3.903
181.656,312.000,3.902
185.307,312.500,3.901
188.946,313.000,3.902
192.532,313.500,3.901
196.090,314.000,3.901
199.599,314.500,3.900
203.116,315.000,3.900
206.584,315.500,3.900
210.030,316.000,3.899
213.436,316.500,3.899
216.839,317.000,3.899
220.236,317.500,3.900
223.577,318.000,3.899
226.895,318.500,3.898
230.221,319.000,3.899
233.521,319.500,3.899
236.795,320.000,3.899
240.073,320.500,3.898
243.321,321.000,3.900
246.551,321.500,3.899
249.779,322.000,3.898
252.985,322.500,3.900
256.173,323.000,3.899
259.356,323.500,3.900
262.520,324.000,3.900
265.687,324.500,3.901
268.827,325.000,3.900
271.957,325.500,3.899
275.103,326.000,3.899
278.221,326.500,3.899
281.319,327.000,3.898
284.417,327.500,3.898
287.520,328.000,3.898
290.588,328.500,3.898
293.662,329.000,3.897
296.718,329.500,3.896
299.784,330.000,3.897
302.829,330.500,3.896
305.863,331.000,3.895
308.895,331.500,3.896
311.916,332.000,3.894
314.952,332.500,3.893
317.969,333.000,3.891
320.967,333.500,3.891
323.967,334.000,3.891
326.975,334.500,3.891
329.970,335.000,3.890
332.954,335.500,3.890
335.940,336.000,3.889
338.910,336.500,3.889
341.892,337.000,3.889
344.845,337.500,3.889
347.807,338.000,3.888
350.769,338.500,3.888
353.721,339.000,3.888
356.677,339.500,3.887
359.625,340.000,3.887
362.539,340.500,3.885
365.488,341.000,3.886
368.425,341.500,3.885
371.348,342.000,3.885
374.266,342.500,3.885
377.198,343.000,3.885
380.124,343.500,3.885
383.042,344.000,3.885
385.956,344.500,3.885
388.855,345.000,3.887
391.765,345.500,3.887
394.670,346.000,3.887
397.575,346.500,3.887
400.472,347.000,3.885
403.373,347.500,3.885
406.271,348.000,3.885
409.169,348.500,3.885
412.044,349.000,3.883
414.936,349.500,3.883
417.819,350.000,3.884
420.718,350.500,3.883
423.589,351.000,3.883
426.480,351.500,3.883
429.365,352.000,3.882
432.225,352.500,3.882
435.120,353.000,3.881
437.991,353.500,3.880
440.864,354.000,3.880
443.730,354.500,3.879
446.597,355.000,3.879
449.468,355.500,3.878
452.334,356.000,3.876
455.195,356.500,3.876
458.065,357.000,3.876
460.918,357.500,3.876
463.786,358.000,3.876
466.654,358.500,3.876
469.516,359.000,3.876
472.357,359.500,3.876
475.233,360.000,3.874
478.081,360.500,3.874
480.930,361.000,3.874
483.785,361.500,3.872
486.642,362.000,3.872
489.505,362.500,3.872
492.344,363.000,3.872
495.191,363.500,3.872
498.048,364.000,3.872
500.894,364.500,3.872
503.762,365.000,3.872
506.591,365.500,3.872
509.444,366.000,3.872
512.293,366.500,3.870
515.126,367.000,3.870
517.979,367.500,3.869
520.821,368.000,3.868
523.666,368.500,3.867
526.496,369.000,3.866
529.350,369.500,3.868
532.194,370.000,3.868
535.032,370.500,3.867
537.876,371.000,3.867
540.731,371.500,3.867
543.579,372.000,3.867
546.415,372.500,3.867
549.248,373.000,3.867
552.110,373.500,3.866
554.945,374.000,3.867
557.796,374.500,3.867
560.619,375.000,3.867
563.462,375.500,3.866
566.302,376.000,3.864
569.137,376.500,3.865
571.979,377.000,3.865
574.816,377.500,3.863
577.656,378.000,3.863
580.493,378.500,3.863
583.335,379.000,3.863
586.171,379.500,3.863
589.011,380.000,3.864
591.847,380.500,3.864
594.694,381.000,3.865
597.525,381.500,3.865
600.362,382.000,3.866
603.202,382.500,3.866
606.039,383.000,3.867
608.868,383.500,3.865
611.711,384.000,3.866
614.560,384.500,3.866
617.386,385.000,3.866
620.219,385.500,3.867
623.059,386.000,3.867
625.892,386.500,3.867
628.731,387.000,3.865
631.562,387.500,3.866
634.397,388.000,3.866
637.250,388.500,3.866
640.073,389.000,3.867
642.921,389.500,3.868
645.751,390.000,3.868
648.589,390.500,3.868
651.419,391.000,3.866
654.259,391.500,3.868
657.093,392.000,3.868
659.931,392.500,3.868
662.763,393.000,3.867
665.614,393.500,3.867
668.442,394.000,3.867
671.280,394.500,3.867
674.110,395.000,3.867
676.941,395.500,3.866
679.783,396.000,3.868
682.619,396.500,3.868
685.459,397.000,3.867
688.290,397.500,3.866
691.131,398.000,3.866
693.961,398.500,3.867
696.791,399.000,3.866
699.625,399.500,3.866
702.469,400.000,3.866
705.304,400.500,3.866
708.139,401.000,3.865
710.981,401.500,3.865
713.829,402.000,3.865
716.659,402.500,3.865
719.496,403.000,3.865
722.328,403.500,3.864
725.167,404.000,3.864
728.002,404.500,3.864
730.842,405.000,3.864
733.677,405.500,3.863
736.515,406.000,3.863
739.340,406.500,3.863
742.191,407.000,3.861
745.027,407.500,3.863
747.875,408.000,3.863
750.702,408.500,3.863
753.542,409.000,3.863
756.383,409.500,3.863
759.219,410.000,3.863
762.061,410.500,3.863
764.897,411.000,3.863
767.728,411.500,3.863
770.562,412.000,3.865
773.402,412.500,3.865
776.234,413.000,3.866
779.071,413.500,3.864
781.907,414.000,3.864
784.756,414.500,3.864
787.582,415.000,3.864
790.419,415.500,3.864
793.253,416.000,3.864
796.108,416.500,3.864
798.945,417.000,3.864
801.785,417.500,3.864
804.631,418.000,3.864
807.462,418.500,3.864
810.304,419.000,3.864
813.139,419.500,3.862
815.984,420.000,3.862
818.838,420.500,3.862
821.659,421.000,3.862
824.494,421.500,3.862
827.336,422.000,3.863
830.178,422.500,3.863
833.008,423.000,3.864
835.854,423.500,3.864
838.688,424.000,3.864
841.522,424.500,3.864
844.368,425.000,3.864
847.206,425.500,3.864
850.049,426.000,3.862
852.882,426.500,3.862
855.723,427.000,3.862
858.551,427.500,3.863
861.404,428.000,3.863
864.247,428.500,3.863
867.088,429.000,3.863
869.911,429.500,3.863
872.761,430.000,3.861
875.596,430.500,3.861
878.444,431.000,3.861
881.280,431.500,3.861
884.125,432.000,3.861
886.962,432.500,3.861
889.793,433.000,3.862
892.648,433.500,3.861
895.482,434.000,3.861
898.318,434.500,3.861
901.158,435.000,3.861
903.996,435.500,3.862
906.836,436.000,3.862
909.676,436.500,3.862
912.513,437.000,3.861
915.354,437.500,3.862
918.191,438.000,3.862
921.031,438.500,3.862
923.865,439.000,3.863
926.694,439.500,3.863
929.533,440.000,3.862
932.374,440.500,3.862
935.208,441.000,3.862
938.048,441.500,3.862
940.885,442.000,3.862
943.734,442.500,3.862
946.567,443.000,3.862
949.408,443.500,3.862
952.250,444.000,3.859
955.094,444.500,3.859
957.933,445.000,3.859
960.779,445.500,3.859
963.612,446.000,3.859
966.458,446.500,3.859
969.288,447.000,3.858
972.138,447.500,3.858
974.974,448.000,3.857
977.804,448.500,3.857
980.658,449.000,3.856
983.472,449.500,3.856
986.319,450.000,3.856
989.163,450.500,3.856
992.008,451.000,3.856
994.842,451.500,3.856
997.676,452.000,3.856
1000.519,452.500,3.856
1003.363,453.000,3.856
1006.204,453.500,3.856
1009.055,454.000,3.856
1011.883,454.500,3.856
1014.729,455.000,3.856
1017.574,455.500,3.856
1020.414,456.000,3.856
1023.259,456.500,3.855
1026.104,457.000,3.853
1028.939,457.500,3.853
1031.783,458.000,3.853
1034.614,458.500,3.853
1037.461,459.000,3.853
1040.291,459.500,3.851
1043.144,460.000,3.851
1045.985,460.500,3.851
1048.827,461.000,3.850
1051.665,461.500,3.849
1054.512,462.000,3.849
1057.363,462.500,3.849
1060.193,463.000,3.847
1063.049,463.500,3.847
1065.876,464.000,3.846
1068.717,464.500,3.846
1071.565,465.000,3.846
1074.419,465.500,3.846
1077.254,466.000,3.845
1080.094,466.500,3.845
1082.945,467.000,3.844
1085.781,467.500,3.844
1088.631,468.000,3.844
1091.461,468.500,3.843
1094.302,469.000,3.843
1097.145,469.500,3.843
1099.985,470.000,3.842
1102.825,470.500,3.841
1105.663,471.000,3.838
1108.512,471.500,3.837
1111.356,472.000,3.837
1114.194,472.500,3.835
1117.042,473.000,3.833
1119.884,473.500,3.833
1122.723,474.000,3.833
1125.571,474.500,3.831
1128.410,475.000,3.831
1131.264,475.500,3.829
1134.105,476.000,3.829
1136.951,476.500,3.829
1139.791,477.000,3.827
1142.631,477.500,3.826
1145.488,478.000,3.825
1148.328,478.500,3.824
1151.172,479.000,3.824
1154.014,479.500,3.823
1156.853,480.000,3.822
1159.705,480.500,3.820
1162.546,481.000,3.817
1165.391,481.500,3.815
1168.234,482.000,3.813
1171.089,482.500,3.813
1173.937,483.000,3.811
1176.785,483.500,3.810
1179.619,484.000,3.809
1182.463,484.500,3.809
1185.299,485.000,3.808
1188.141,485.500,3.807
1190.978,486.000,3.807
1193.835,486.500,3.806
1196.681,487.000,3.805
1199.526,487.500,3.804
1202.358,488.000,3.803
1205.221,488.500,3.799
1208.054,489.000,3.797
1210.898,489.500,3.797
1213.750,490.000,3.795
1216.596,490.500,3.794
1219.431,491.000,3.793
1222.275,491.500,3.791
1225.113,492.000,3.790
1227.948,492.500,3.787
1230.786,493.000,3.787
1233.640,493.500,3.785
1236.477,494.000,3.785
1239.320,494.500,3.783
1242.156,495.000,3.781
1245.004,495.500,3.780
1247.848,496.000,3.779
1250.693,496.500,3.776
1253.548,497.000,3.774
1256.393,497.500,3.774
1259.219,498.000,3.772
1262.065,498.500,3.772
1264.906,499.000,3.770
1267.748,499.500,3.770
1270.587,500.000,3.768
1273.431,500.500,3.767
1276.284,501.000,3.765
1279.128,501.500,3.764
1281.976,502.000,3.765
1284.814,502.500,3.764
1287.661,503.000,3.762
1290.510,503.500,3.761
1293.355,504.000,3.760
1296.196,504.500,3.758
1299.044,505.000,3.758
1301.891,505.500,3.756
1304.733,506.000,3.756
1307.585,506.500,3.753
1310.429,507.000,3.751
1313.271,507.500,3.750
1316.121,508.000,3.748
1318.967,508.500,3.745
1321.802,509.000,3.743
1324.667,509.500,3.743
1327.525,510.000,3.741
1330.363,510.500,3.739
1333.216,511.000,3.737
1336.055,511.500,3.736
1338.906,512.000,3.735
1341.761,512.500,3.734
1344.599,513.000,3.733
1347.457,513.500,3.730
1350.304,514.000,3.729
1353.140,514.500,3.727
1355.990,515.000,3.724
1358.849,515.500,3.723
1361.694,516.000,3.720
1364.546,516.500,3.719
1367.399,517.000,3.717
1370.241,517.500,3.715
1373.087,518.000,3.713
1375.943,518.500,3.711
1378.775,519.000,3.710
1381.638,519.500,3.708
1384.483,520.000,3.705
1387.341,520.500,3.705
1390.183,521.000,3.702
1393.042,521.500,3.701
1395.883,522.000,3.699
1398.734,522.500,3.697
1401.599,523.000,3.695
1404.446,523.500,3.692
1407.288,524.000,3.690
1410.151,524.500,3.687
1412.993,525.000,3.685
1415.858,525.500,3.682
1418.711,526.000,3.681
1421.562,526.500,3.677
1424.427,527.000,3.675
1427.273,527.500,3.672
1430.133,528.000,3.670
1432.980,528.500,3.668
1435.848,529.000,3.665
1438.699,529.500,3.663
1441.552,530.000,3.661
1444.414,530.500,3.657
1447.275,531.000,3.654
1450.137,531.500,3.654
1452.991,532.000,3.652
1455.848,532.500,3.650
1458.704,533.000,3.646
1461.568,533.500,3.644
1464.425,534.000,3.642
1467.293,534.500,3.639
1470.156,535.000,3.636
1473.008,535.500,3.633
1475.864,536.000,3.631
1478.736,536.500,3.627
1481.602,537.000,3.623
1484.464,537.500,3.620
1487.316,538.000,3.614
1490.184,538.500,3.612
1493.048,539.000,3.609
1495.904,539.500,3.605
1498.774,540.000,3.603
1501.633,540.500,3.600
1504.510,541.000,3.597
1507.362,541.500,3.593
1510.223,542.000,3.590
1513.091,542.500,3.589
1515.960,543.000,3.585
1518.825,543.500,3.582
1521.683,544.000,3.578
1524.559,544.500,3.574
1527.419,545.000,3.571
1530.288,545.500,3.566
1533.151,546.000,3.564
1536.019,546.500,3.560
1538.879,547.000,3.557
1541.742,547.500,3.551
1544.602,548.000,3.548
1547.476,548.500,3.545
1550.339,549.000,3.541
1553.208,549.500,3.537
1556.076,550.000,3.532
1558.955,550.500,3.529
1561.808,551.000,3.525
1564.681,551.500,3.520
1567.542,552.000,3.516
1570.408,552.500,3.513
1573.287,553.000,3.507
1576.160,553.500,3.504
1579.023,554.000,3.498
1581.904,554.500,3.493
1584.763,555.000,3.486
1587.631,555.500,3.482
1590.505,556.000,3.477
1593.376,556.500,3.471
1596.248,557.000,3.467
1599.129,557.500,3.461
1601.994,558.000,3.456
1604.867,558.500,3.454
1607.748,559.000,3.448
1610.602,559.500,3.443
1613.481,560.000,3.438
1616.342,560.500,3.434
1619.231,561.000,3.430
1622.104,561.500,3.423
1624.978,562.000,3.419
1627.852,562.500,3.412
1630.714,563.000,3.407
1633.596,563.500,3.401
1636.477,564.000,3.396
1639.340,564.500,3.391
1642.215,565.000,3.385
1645.085,565.500,3.379
1647.958,566.000,3.371
1650.842,566.500,3.365
1653.710,567.000,3.360
1656.585,567.500,3.354
1659.469,568.000,3.348
1662.342,568.500,3.342
1665.225,569.000,3.336
1668.094,569.500,3.330
1670.971,570.000,3.325
1673.846,570.500,3.320
1676.731,571.000,3.313
1679.613,571.500,3.306
1682.490,572.000,3.300
1685.372,572.500,3.294
1688.246,573.000,3.286
1691.120,573.500,3.279
1693.996,574.000,3.272
1696.878,574.500,3.265
1699.760,575.000,3.259
1702.636,575.500,3.253
1705.517,576.000,3.245
1708.402,576.500,3.238
1711.268,577.000,3.231
1714.154,577.500,3.223
1717.035,578.000,3.216
1719.911,578.500,3.209
1722.785,579.000,3.202
1725.667,579.500,3.196
1728.554,580.000,3.190
1731.436,580.500,3.183
1734.312,581.000,3.175
1737.207,581.500,3.167
1740.087,582.000,3.159
1742.974,582.500,3.150
1745.854,583.000,3.139
1748.744,583.500,3.131
1751.625,584.000,3.123
1754.506,584.500,3.117
1757.393,585.000,3.110
1760.275,585.500,3.104
1763.175,586.000,3.095
1766.049,586.500,3.088
1768.945,587.000,3.078
1771.835,587.500,3.070
1774.728,588.000,3.059
1777.611,588.500,3.052
1780.511,589.000,3.044
1783.413,589.500,3.031
1786.297,590.000,3.023
1789.189,590.500,3.015
1792.069,591.000,3.007
1794.974,591.500,2.997
1797.860,592.000,2.987
1800.762,592.500,2.979
1803.648,593.000,2.971
1806.543,593.500,2.961
1809.436,594.000,2.953
1812.342,594.500,2.944
1815.237,595.000,2.935
1818.133,595.500,2.925
1821.025,596.000,2.916
1823.928,596.500,2.906
1826.835,597.000,2.897
1829.724,597.500,2.888
1832.631,598.000,2.878
1835.527,598.500,2.868
1838.418,599.000,2.859
1841.325,599.500,2.849
1844.231,600.000,2.840
1847.133,600.500,2.830
1850.025,601.000,2.820
1852.934,601.500,2.809
1855.831,602.000,2.798
1858.740,602.500,2.788
1861.644,603.000,2.778
1864.552,603.500,2.767
1867.454,604.000,2.757
1870.361,604.500,2.745
1873.264,605.000,2.737
1876.169,605.500,2.726
1879.084,606.000,2.717
1881.985,606.500,2.705
1884.889,607.000,2.694
1887.791,607.500,2.683
1890.701,608.000,2.671
1893.615,608.500,2.660
1896.531,609.000,2.648
1899.431,609.500,2.637
1902.346,610.000,2.626
1905.254,610.500,2.615
1908.161,611.000,2.603
1911.077,611.500,2.592
1913.978,612.000,2.581
1916.905,612.500,2.570
1919.809,613.000,2.559
1922.730,613.500,2.547
1925.653,614.000,2.535
1928.562,614.500,2.522
1931.481,615.000,2.510
1934.383,615.500,2.498
1937.313,616.000,2.486
1940.219,616.500,2.472
1943.146,617.000,2.460
1946.072,617.500,2.447
1948.996,618.000,2.435
1951.920,618.500,2.420
1954.831,619.000,2.407
1957.754,619.500,2.394
1960.684,620.000,2.382
1963.619,620.500,2.369
1966.531,621.000,2.357
1969.460,621.500,2.345
1972.385,622.000,2.332
1975.313,622.500,2.318
1978.243,623.000,2.304
1981.166,623.500,2.291
1984.105,624.000,2.273
1987.039,624.500,2.252
1989.971,625.000,2.236
1992.890,625.500,2.222
1995.819,626.000,2.209
1998.760,626.500,2.198
2001.698,627.000,2.185
2004.627,627.500,2.172
2007.574,628.000,2.158
2010.505,628.500,2.144
2013.443,629.000,2.126
2016.385,629.500,2.107
2019.324,630.000,2.095
2022.266,630.500,2.081
2025.208,631.000,2.061
2028.138,631.500,2.044
2031.090,632.000,2.028
2034.033,632.500,2.013
2036.983,633.000,1.998
2039.922,633.500,1.981
2042.870,634.000,1.963
2045.806,634.500,1.947
2048.760,635.000,1.930
2051.708,635.500,1.914
2054.660,636.000,1.897
2057.607,636.500,1.877
2060.554,637.000,1.861
2063.485,637.500,1.843
2066.443,638.000,1.824
2069.392,638.500,1.807
2072.334,639.000,1.788
2075.287,639.500,1.770
2078.239,640.000,1.751
2081.185,640.500,1.732
2084.127,641.000,1.712
2087.067,641.500,1.694
2090.008,642.000,1.676
2092.960,642.500,1.656
2095.899,643.000,1.638
2098.835,643.500,1.618
2101.777,644.000,1.599
2104.705,644.500,1.580
2107.644,645.000,1.561
2110.578,645.500,1.542
2113.507,646.000,1.522
2116.419,646.500,1.503
2119.361,647.000,1.484
2122.284,647.500,1.468
2125.192,648.000,1.448
2128.102,648.500,1.427
2131.031,649.000,1.410
2133.932,649.500,1.391
2136.837,650.000,1.372
2139.749,650.500,1.352
2142.637,651.000,1.333
2145.534,651.500,1.316
2148.429,652.000,1.300
2151.306,652.500,1.283
2154.185,653.000,1.265
2157.071,653.500,1.249
2159.937,654.000,1.231
2162.816,654.500,1.216
2165.682,655.000,1.204
2168.544,655.500,1.192
2171.417,656.000,1.183
2174.281,656.500,1.171
2177.129,657.000,1.160
2179.996,657.500,1.147
2182.859,658.000,1.134
2185.719,658.500,1.123
2188.575,659.000,1.113
2191.458,659.500,1.105
2194.283,660.000,1.096
2197.150,660.500,1.090
2200.021,661.000,1.084
2202.883,661.500,1.078
2205.766,662.000,1.072
2208.633,662.500,1.066
2211.511,663.000,1.061
2214.387,663.500,1.056
2217.272,664.000,1.050
2220.167,664.500,1.044
2223.068,665.000,1.040
2225.965,665.500,1.036
2228.872,666.000,1.033
2231.778,666.500,1.030
2234.689,667.000,1.028
2237.608,667.500,1.025
2240.533,668.000,1.023
2243.446,668.500,1.020
2246.378,669.000,1.017
2249.305,669.500,1.014
2252.241,670.000,1.013
2255.157,670.500,1.012
2258.102,671.000,1.010
2261.037,671.500,1.008
2263.977,672.000,1.006
2266.909,672.500,1.003
2269.848,673.000,1.001
2272.778,673.500,0.999
2275.728,674.000,0.997
2278.660,674.500,0.994
2281.601,675.000,0.991
2284.542,675.500,0.989
2287.484,676.000,0.988
2290.425,676.500,0.985
2293.366,677.000,0.983
2296.319,677.500,0.983
2299.256,678.000,0.981
2302.201,678.500,0.979
2305.140,679.000,0.977
2308.080,679.500,0.976
2311.035,680.000,0.974
2313.971,680.500,0.973
2316.903,681.000,0.971
2319.849,681.500,0.968
2322.801,682.000,0.967
2325.759,682.500,0.966
2328.696,683.000,0.966
2331.640,683.500,0.964
2334.590,684.000,0.962
2337.531,684.500,0.962
2340.479,685.000,0.960
2343.427,685.500,0.958
2346.378,686.000,0.956
2349.331,686.500,0.955
2352.289,687.000,0.953
2355.237,687.500,0.951
2358.184,688.000,0.949
2361.143,688.500,0.949
2364.087,689.000,0.947
2367.047,689.500,0.945
2369.996,690.000,0.944
2372.943,690.500,0.943
2375.898,691.000,0.941
2378.854,691.500,0.940
2381.813,692.000,0.940
2384.765,692.500,0.939
2387.716,693.000,0.939
2390.678,693.500,0.937
2393.637,694.000,0.937
2396.601,694.500,0.935
2399.554,695.000,0.933
2402.512,695.500,0.933
2405.481,696.000,0.932
2408.435,696.500,0.931
2411.399,697.000,0.928
2414.354,697.500,0.928
2417.319,698.000,0.926
2420.278,698.500,0.924
2423.233,699.000,0.923
2426.202,699.500,0.920
2429.162,700.000,0.918
2432.129,700.500,0.915
2435.098,701.000,0.912
2438.071,701.500,0.911
2441.031,702.000,0.910
2443.989,702.500,0.910
2446.960,703.000,0.908
2449.926,703.500,0.906
2452.892,704.000,0.906
2455.866,704.500,0.903
2458.829,705.000,0.902
2461.793,705.500,0.901
2464.767,706.000,0.900
2467.737,706.500,0.899
2470.713,707.000,0.897
2473.674,707.500,0.896
2476.653,708.000,0.895
2479.623,708.500,0.893
2482.601,709.000,0.892
2485.575,709.500,0.890
2488.548,710.000,0.889
2491.525,710.500,0.888
2494.491,711.000,0.886
2497.472,711.500,0.884
2500.431,712.000,0.884
2503.408,712.500,0.882
2506.389,713.000,0.882
2509.372,713.500,0.880
2512.346,714.000,0.880
2515.324,714.500,0.878
2518.300,715.000,0.877
2521.272,715.500,0.876
2524.251,716.000,0.875
2527.233,716.500,0.873
2530.209,717.000,0.871
2533.196,717.500,0.869
2536.167,718.000,0.867
2539.152,718.500,0.866
2542.131,719.000,0.864
2545.110,719.500,0.863
2548.101,720.000,0.863
2551.082,720.500,0.862
2554.064,721.000,0.864
2557.041,721.500,0.863
2560.029,722.000,0.863
2563.013,722.500,0.862
2565.993,723.000,0.862
2568.987,723.500,0.861
2571.976,724.000,0.859
2574.965,724.500,0.857
2577.954,725.000,0.855
2580.934,725.500,0.854
2583.915,726.000,0.852
2586.902,726.500,0.850
2589.902,727.000,0.848
2592.886,727.500,0.848
2595.861,728.000,0.848
2598.867,728.500,0.844
2601.849,729.000,0.843
2604.843,729.500,0.842
2607.831,730.000,0.841
2610.813,730.500,0.840
2613.801,731.000,0.840
2616.801,731.500,0.838
2619.783,732.000,0.836
2622.771,732.500,0.836
2625.764,733.000,0.836
2628.759,733.500,0.834
2631.747,734.000,0.834
2634.740,734.500,0.832
2637.728,735.000,0.831
2640.712,735.500,0.829
2643.705,736.000,0.828
2646.706,736.500,0.826
2649.687,737.000,0.824
2652.681,737.500,0.824
2655.682,738.000,0.822
2658.672,738.500,0.822
2661.669,739.000,0.822
2664.665,739.500,0.820
2667.663,740.000,0.819
2670.653,740.500,0.819
2673.643,741.000,0.818
2676.647,741.500,0.817
2679.635,742.000,0.817
2682.633,742.500,0.818
2685.631,743.000,0.818
2688.635,743.500,0.817
2691.633,744.000,0.816
2694.627,744.500,0.815
2697.627,745.000,0.815
2700.625,745.500,0.814
2703.621,746.000,0.814
2706.615,746.500,0.813
2709.604,747.000,0.812
2712.597,747.500,0.811
2715.591,748.000,0.808
2718.596,748.500,0.807
2721.591,749.000,0.807
2724.586,749.500,0.807
2727.583,750.000,0.807
2730.576,750.500,0.806
2733.573,751.000,0.805
2736.572,751.500,0.804
2739.577,752.000,0.803
2742.573,752.500,0.803
2745.564,753.000,0.802
2748.570,753.500,0.802
2751.560,754.000,0.801
2754.556,754.500,0.800
2757.549,755.000,0.800
2760.552,755.500,0.799
2763.549,756.000,0.797
2766.547,756.500,0.797
2769.540,757.000,0.796
2772.537,757.500,0.795
2775.534,758.000,0.795
2778.525,758.500,0.794
2781.522,759.000,0.793
2784.522,759.500,0.793
2787.522,760.000,0.793
2790.525,760.500,0.791
2793.516,761.000,0.790
2796.516,761.500,0.790
2799.516,762.000,0.790
2802.507,762.500,0.787
2805.510,763.000,0.786
2808.510,763.500,0.786
2811.498,764.000,0.785
2814.510,764.500,0.784
2817.501,765.000,0.783
2820.501,765.500,0.783
2823.498,766.000,0.782
2826.501,766.500,0.781
2829.495,767.000,0.780
2832.504,767.500,0.778
2835.498,768.000,0.776
2838.507,768.500,0.777
2841.513,769.000,0.777
2844.498,769.500,0.775
2847.501,770.000,0.775
2850.510,770.500,0.775
2853.494,771.000,0.773
2856.495,771.500,0.774
2859.501,772.000,0.774
2862.501,772.500,0.774
2865.510,773.000,0.774
2868.504,773.500,0.772
2871.516,774.000,0.771
2874.510,774.500,0.770
2877.510,775.000,0.769
2880.522,775.500,0.768
2883.513,776.000,0.767
2886.525,776.500,0.766
2889.525,777.000,0.766
2892.519,777.500,0.767
2895.534,778.000,0.766
2898.531,778.500,0.766
2901.537,779.000,0.764
2904.537,779.500,0.764
2907.534,780.000,0.764
2910.531,780.500,0.764
2913.552,781.000,0.762
2916.546,781.500,0.762
2919.552,782.000,0.762
2922.554,782.500,0.761
2925.567,783.000,0.762
2928.570,783.500,0.762
2931.578,784.000,0.762
2934.580,784.500,0.762
2937.590,785.000,0.762
2940.591,785.500,0.762
2943.589,786.000,0.762
2946.597,786.500,0.760
2949.605,787.000,0.760
2952.611,787.500,0.760
2955.619,788.000,0.759
2958.619,788.500,0.758
2961.623,789.000,0.758
2964.631,789.500,0.757
2967.645,790.000,0.757
2970.654,790.500,0.756
2973.657,791.000,0.755
2976.661,791.500,0.755
2979.671,792.000,0.754
2982.689,792.500,0.754
2985.681,793.000,0.753
2988.687,793.500,0.752
2991.693,794.000,0.751
2994.699,794.500,0.750
2997.710,795.000,0.750
3000.717,795.500,0.751
3003.717,796.000,0.751
3006.724,796.500,0.749
3009.741,797.000,0.749
3012.752,797.500,0.749
3015.758,798.000,0.749
3018.765,798.500,0.747
3021.772,799.000,0.747
3024.778,799.500,0.747
3027.777,800.000,0.747
3030.819,800.500,0.747
3033.813,801.000,0.745
3036.813,801.500,0.745
3039.837,802.000,0.745
3042.843,802.500,0.743
3045.843,803.000,0.743
3048.849,803.500,0.742
3051.867,804.000,0.741
3054.890,804.500,0.741
3057.896,805.000,0.740
3060.892,805.500,0.740
3063.910,806.000,0.739
3066.916,806.500,0.739
3069.929,807.000,0.738
3072.934,807.500,0.738
3075.950,808.000,0.737
3078.963,808.500,0.737
3081.973,809.000,0.736
3084.976,809.500,0.735
3087.996,810.000,0.735
3091.011,810.500,0.734
3094.013,811.000,0.734
3097.027,811.500,0.735
3100.037,812.000,0.735
3103.055,812.500,0.734
3106.059,813.000,0.734
3109.078,813.500,0.734
3112.080,814.000,0.734
3115.101,814.500,0.734
3118.110,815.000,0.732
3121.116,815.500,0.732
3124.128,816.000,0.732
3127.147,816.500,0.732
3130.158,817.000,0.732
3133.164,817.500,0.730
3136.173,818.000,0.730
3139.189,818.500,0.730
3142.207,819.000,0.730
3145.217,819.500,0.730
3148.235,820.000,0.730
3151.243,820.500,0.730
3154.253,821.000,0.730
3157.263,821.500,0.728
3160.289,822.000,0.728
3163.287,822.500,0.728
3166.306,823.000,0.728
3169.325,823.500,0.726
3172.335,824.000,0.726
3175.343,824.500,0.725
3178.370,825.000,0.724
3181.389,825.500,0.724
3184.389,826.000,0.723
3187.407,826.500,0.722
3190.425,827.000,0.721
3193.449,827.500,0.721
3196.455,828.000,0.721
3199.474,828.500,0.720
3202.496,829.000,0.719
3205.511,829.500,0.720
3208.518,830.000,0.719
3211.535,830.500,0.719
3214.554,831.000,0.717
3217.580,831.500,0.717
3220.596,832.000,0.717
3223.613,832.500,0.717
3226.625,833.000,0.717
3229.639,833.500,0.717
3232.657,834.000,0.717
3235.680,834.500,0.715
3238.689,835.000,0.716
3241.722,835.500,0.716
3244.731,836.000,0.714
3247.752,836.500,0.714
3250.767,837.000,0.714
3253.786,837.500,0.714
3256.809,838.000,0.712
3259.827,838.500,0.712
3262.854,839.000,0.712
3265.873,839.500,0.712
3268.877,840.000,0.712
3271.898,840.500,0.712
3274.904,841.000,0.712
3277.946,841.500,0.712
3280.958,842.000,0.710
3283.988,842.500,0.709
3286.990,843.000,0.708
3290.025,843.500,0.708
3293.037,844.000,0.708
3296.049,844.500,0.707
3299.084,845.000,0.707
3302.104,845.500,0.706
3305.115,846.000,0.706
3308.139,846.500,0.705
3311.162,847.000,0.705
3314.180,847.500,0.705
3317.201,848.000,0.705
3320.233,848.500,0.705
3323.245,849.000,0.704
3326.271,849.500,0.705
3329.283,850.000,0.704
3332.322,850.500,0.704
3335.334,851.000,0.704
3338.358,851.500,0.704
3341.385,852.000,0.702
3344.409,852.500,0.702
3347.437,853.000,0.700
3350.451,853.500,0.700
3353.471,854.000,0.700
3356.487,854.500,0.698
3359.513,855.000,0.699
3362.541,855.500,0.697
3365.558,856.000,0.697
3368.583,856.500,0.697
3371.601,857.000,0.697
3374.631,857.500,0.697
3377.655,858.000,0.695
3380.679,858.500,0.695
3383.704,859.000,0.695
3386.721,859.500,0.695
3389.729,860.000,0.695
3392.761,860.500,0.695
3395.789,861.000,0.693
3398.811,861.500,0.693
3401.821,862.000,0.692
3404.858,862.500,0.691
3407.870,863.000,0.690
3410.901,863.500,0.691
3413.907,864.000,0.690
3416.928,864.500,0.691
3419.958,865.000,0.690
3422.980,865.500,0.690
3425.991,866.000,0.690
3429.017,866.500,0.689
3432.041,867.000,0.689
3435.057,867.500,0.689
3438.075,868.000,0.689
3441.114,868.500,0.689
3444.123,869.000,0.689
3447.147,869.500,0.689
3450.181,870.000,0.688
3453.195,870.500,0.688
3456.213,871.000,0.687
3459.237,871.500,0.686
3462.254,872.000,0.686
3465.273,872.500,0.687
3468.286,873.000,0.687
3471.315,873.500,0.687
3474.336,874.000,0.688
3477.351,874.500,0.686
3480.368,875.000,0.686
3483.391,875.500,0.686
3486.403,876.000,0.686
3489.431,876.500,0.686
3492.435,877.000,0.686
3495.452,877.500,0.686
3498.467,878.000,0.684
3501.501,878.500,0.686
3504.507,879.000,0.686
3507.522,879.500,0.686
3510.537,880.000,0.686
3513.553,880.500,0.686
3516.579,881.000,0.686
3519.605,881.500,0.684
3522.613,882.000,0.684
3525.637,882.500,0.684
3528.654,883.000,0.684
3531.669,883.500,0.684
3534.678,884.000,0.684
3537.693,884.500,0.684
3540.713,885.000,0.682
3543.736,885.500,0.682
3546.743,886.000,0.682
3549.788,886.500,0.684
3552.789,887.000,0.682
3555.813,887.500,0.682
3558.831,888.000,0.683
3561.849,888.500,0.682
3564.855,889.000,0.682
3567.884,889.500,0.681
3570.907,890.000,0.680
3573.909,890.500,0.679
3576.923,891.000,0.678
3579.951,891.500,0.677
3582.971,892.000,0.677
3585.984,892.500,0.675
3589.007,893.000,0.675
3592.031,893.500,0.675
3595.043,894.000,0.674
3598.062,894.500,0.673
3601.083,895.000,0.673
3604.086,895.500,0.672
3607.116,896.000,0.672
3610.128,896.500,0.672
3613.146,897.000,0.672
3616.158,897.500,0.672
3619.168,898.000,0.672
3622.189,898.500,0.672
3625.203,899.000,0.670
3628.227,899.500,0.670
3631.231,900.000,0.670
3634.253,900.500,0.670
3637.272,901.000,0.670
3640.301,901.500,0.668
3643.296,902.000,0.670
3646.316,902.500,0.670
3649.336,903.000,0.670
3652.360,903.500,0.670
3655.359,904.000,0.670
3658.383,904.500,0.670
3661.389,905.000,0.670
3664.407,905.500,0.670
3667.425,906.000,0.670
3670.443,906.500,0.668
3673.455,907.000,0.668
3676.474,907.500,0.668
3679.474,908.000,0.666
3682.518,908.500,0.666
3685.514,909.000,0.664
3688.539,909.500,0.664
3691.540,910.000,0.664
3694.560,910.500,0.664
3697.572,911.000,0.664
3700.601,911.500,0.666
3703.601,912.000,0.665
3706.611,912.500,0.665
3709.629,913.000,0.665
3712.643,913.500,0.665
3715.653,914.000,0.665
3718.663,914.500,0.665
3721.682,915.000,0.665
3724.695,915.500,0.665
3727.710,916.000,0.665
3730.728,916.500,0.664
3733.737,917.000,0.663
3736.745,917.500,0.663
3739.752,918.000,0.663
3742.770,918.500,0.663
3745.792,919.000,0.662
3748.809,919.500,0.661
3751.817,920.000,0.662
3754.829,920.500,0.661
3757.849,921.000,0.662
3760.866,921.500,0.661
3763.872,922.000,0.661
3766.893,922.500,0.661
3769.918,923.000,0.662
3772.927,923.500,0.661
3775.940,924.000,0.660
3778.952,924.500,0.661
3781.977,925.000,0.659
3784.995,925.500,0.659
3788.013,926.000,0.659
3791.013,926.500,0.659
3794.037,927.000,0.659
3797.055,927.500,0.659
3800.074,928.000,0.659
3803.092,928.500,0.659
3806.115,929.000,0.659
3809.129,929.500,0.659
3812.140,930.000,0.659
3815.163,930.500,0.657
3818.180,931.000,0.657
3821.195,931.500,0.657
3824.213,932.000,0.657
3827.237,932.500,0.657
3830.243,933.000,0.657
3833.264,933.500,0.657
3836.286,934.000,0.655
3839.307,934.500,0.656
3842.328,935.000,0.656
3845.337,935.500,0.656
3848.368,936.000,0.654
3851.385,936.500,0.654
3854.409,937.000,0.654
3857.427,937.500,0.653
3860.445,938.000,0.652
3863.463,938.500,0.651
3866.489,939.000,0.651
3869.511,939.500,0.651
3872.525,940.000,0.651
3875.552,940.500,0.651
3878.577,941.000,0.651
3881.595,941.500,0.650
3884.607,942.000,0.650
3887.637,942.500,0.650
3890.661,943.000,0.649
3893.674,943.500,0.649
3896.698,944.000,0.649
3899.721,944.500,0.649
3902.741,945.000,0.650
3905.762,945.500,0.650
3908.793,946.000,0.650
3911.815,946.500,0.650
3914.827,947.000,0.650
3917.863,947.500,0.649
3920.879,948.000,0.649
3923.907,948.500,0.650
3926.928,949.000,0.650
3929.958,949.500,0.650
3932.979,950.000,0.650
3935.993,950.500,0.650
3939.023,951.000,0.649
3942.033,951.500,0.649
3945.055,952.000,0.649
3948.081,952.500,0.649
3951.103,953.000,0.650
3954.133,953.500,0.650
3957.147,954.000,0.650
3960.176,954.500,0.650
3963.201,955.000,0.649
3966.225,955.500,0.649
3969.249,956.000,0.648
3972.280,956.500,0.647
3975.298,957.000,0.645
3978.334,957.500,0.645
3981.357,958.000,0.647
3984.393,958.500,0.647
3987.405,959.000,0.645
3990.427,959.500,0.645
3993.453,960.000,0.645
3996.482,960.500,0.645
3999.519,961.000,0.645
4002.531,961.500,0.645
4005.567,962.000,0.645
4008.596,962.500,0.645
4011.631,963.000,0.645
4014.645,963.500,0.645
4017.679,964.000,0.645
4020.709,964.500,0.645
4023.735,965.000,0.645
4026.765,965.500,0.645
4029.789,966.000,0.645
4032.825,966.500,0.645
4035.837,967.000,0.645
4038.885,967.500,0.645
4041.916,968.000,0.643
4044.945,968.500,0.643
4047.983,969.000,0.643
4051.009,969.500,0.643
4054.039,970.000,0.643
4057.073,970.500,0.643
4060.112,971.000,0.642
4063.131,971.500,0.641
4066.170,972.000,0.641
4069.211,972.500,0.641
4072.247,973.000,0.641
4075.281,973.500,0.641
4078.311,974.000,0.641
4081.356,974.500,0.641
4084.382,975.000,0.640
4087.419,975.500,0.640
4090.461,976.000,0.639
4093.474,976.500,0.638
4096.511,977.000,0.638
4099.558,977.500,0.637
4102.593,978.000,0.636
4105.631,978.500,0.636
4108.667,979.000,0.635
4111.704,979.500,0.635
4114.749,980.000,0.635
4117.767,980.500,0.635
4120.811,981.000,0.635
4123.851,981.500,0.635
4126.893,982.000,0.635
4129.928,982.500,0.635
4132.959,983.000,0.635
4135.995,983.500,0.635
4139.037,984.000,0.635
4142.079,984.500,0.635
4145.119,985.000,0.635
4148.141,985.500,0.635
4151.184,986.000,0.635
4154.227,986.500,0.635
4157.262,987.000,0.635
4160.310,987.500,0.635
4163.349,988.000,0.635
4166.396,988.500,0.636
4169.427,989.000,0.637
4172.483,989.500,0.637
4175.505,990.000,0.637
4178.557,990.500,0.636
4181.583,991.000,0.636
4184.631,991.500,0.636
4187.690,992.000,0.635
4190.717,992.500,0.635
4193.771,993.000,0.635
4196.823,993.500,0.636
4199.856,994.000,0.636
4202.913,994.500,0.636
4205.956,995.000,0.634
4209.006,995.500,0.634
4212.055,996.000,0.634
4215.100,996.500,0.632
4218.163,997.000,0.632
4221.206,997.500,0.631
4224.243,998.000,0.628
4227.292,998.500,0.628
4230.334,999.000,0.628
4233.386,999.500,0.628
4236.435,1000.000,0.628
4239.486,1000.500,0.628
4242.543,1001.000,0.628
4245.586,1001.500,0.629
4248.633,1002.000,0.630
4251.683,1002.500,0.631
4254.733,1003.000,0.632
4257.776,1003.500,0.630
4260.831,1004.000,0.630
4263.881,1004.500,0.629
4266.925,1005.000,0.629
4269.978,1005.500,0.628
4273.033,1006.000,0.628
4276.095,1006.500,0.627
4279.140,1007.000,0.627
4282.200,1007.500,0.627
4285.237,1008.000,0.626
4288.289,1008.500,0.627
4291.351,1009.000,0.627
4294.401,1009.500,0.627
4297.431,1010.000,0.628
4300.502,1010.500,0.628
4303.543,1011.000,0.628
4306.603,1011.500,0.628
4309.660,1012.000,0.629
4312.719,1012.500,0.630
4315.758,1013.000,0.630
4318.808,1013.500,0.631
4321.868,1014.000,0.631
4324.919,1014.500,0.631
4327.977,1015.000,0.631
4331.037,1015.500,0.631
4334.081,1016.000,0.631
4337.147,1016.500,0.629
4340.201,1017.000,0.628
4343.267,1017.500,0.628
4346.322,1018.000,0.628
4349.370,1018.500,0.628
4352.419,1019.000,0.628
4355.478,1019.500,0.628
4358.533,1020.000,0.629
4361.601,1020.500,0.628
4364.655,1021.000,0.628
4367.706,1021.500,0.629
4370.766,1022.000,0.628
4373.827,1022.500,0.628
4376.891,1023.000,0.627
4379.937,1023.500,0.627
4382.998,1024.000,0.626
4386.049,1024.500,0.626
4389.114,1025.000,0.626
4392.163,1025.500,0.626
4395.225,1026.000,0.626
4398.292,1026.500,0.626
4401.347,1027.000,0.626
4404.401,1027.500,0.625
4407.458,1028.000,0.625
4410.509,1028.500,0.623
4413.581,1029.000,0.623
4416.641,1029.500,0.623
4419.698,1030.000,0.623
4422.756,1030.500,0.623
4425.831,1031.000,0.623
4428.881,1031.500,0.623
4431.946,1032.000,0.623
4435.011,1032.500,0.623
4438.066,1033.000,0.624
4441.128,1033.500,0.624
4444.192,1034.000,0.624
4447.257,1034.500,0.625
4450.313,1035.000,0.624
4453.365,1035.500,0.624
4456.449,1036.000,0.624
4459.498,1036.500,0.624
4462.572,1037.000,0.622
4465.627,1037.500,0.622
4468.692,1038.000,0.622
4471.747,1038.500,0.622
4474.817,1039.000,0.622
4477.887,1039.500,0.622
4480.951,1040.000,0.620
4484.001,1040.500,0.620
4487.074,1041.000,0.620
4490.129,1041.500,0.620
4493.201,1042.000,0.620
4496.255,1042.500,0.620
4499.319,1043.000,0.620
4502.379,1043.500,0.622
4505.449,1044.000,0.622
4508.515,1044.500,0.622
4511.582,1045.000,0.622
4514.643,1045.500,0.622
4517.695,1046.000,0.622
4520.764,1046.500,0.620
4523.831,1047.000,0.620
4526.891,1047.500,0.620
4529.953,1048.000,0.619
4533.023,1048.500,0.619
4536.086,1049.000,0.618
4539.158,1049.500,0.618
4542.231,1050.000,0.618
4545.280,1050.500,0.618
4548.341,1051.000,0.618
4551.412,1051.500,0.618
4554.488,1052.000,0.618
4557.552,1052.500,0.618
4560.606,1053.000,0.618
4563.676,1053.500,0.620
4566.737,1054.000,0.620
4569.800,1054.500,0.620
4572.868,1055.000,0.620
4575.929,1055.500,0.619
4579.006,1056.000,0.618
4582.072,1056.500,0.618
4585.140,1057.000,0.616
4588.198,1057.500,0.616
4591.268,1058.000,0.615
4594.333,1058.500,0.617
4597.394,1059.000,0.617
4600.473,1059.500,0.617
4603.525,1060.000,0.617
4606.590,1060.500,0.617
4609.666,1061.000,0.617
4612.725,1061.500,0.617
4615.800,1062.000,0.617
4618.867,1062.500,0.618
4621.915,1063.000,0.618
4624.982,1063.500,0.618
4628.055,1064.000,0.617
4631.106,1064.500,0.617
4634.180,1065.000,0.616
4637.242,1065.500,0.615
4640.313,1066.000,0.614
4643.377,1066.500,0.614
4646.439,1067.000,0.614
4649.519,1067.500,0.614
4652.587,1068.000,0.614
4655.643,1068.500,0.614
4658.693,1069.000,0.614
4661.772,1069.500,0.614
4664.829,1070.000,0.614
4667.891,1070.500,0.614
4670.965,1071.000,0.614
4674.027,1071.500,0.614
4677.090,1072.000,0.614
4680.152,1072.500,0.612
4683.213,1073.000,0.612
4686.282,1073.500,0.612
4689.357,1074.000,0.612
4692.425,1074.500,0.612
4695.485,1075.000,0.612
4698.556,1075.500,0.612
4701.611,1076.000,0.612
4704.656,1076.500,0.612
4707.738,1077.000,0.612
4710.801,1077.500,0.612
4713.880,1078.000,0.612
4716.940,1078.500,0.614
4719.997,1079.000,0.614
4723.066,1079.500,0.614
4726.131,1080.000,0.614
4729.201,1080.500,0.614
4732.268,1081.000,0.612
4735.331,1081.500,0.612
4738.395,1082.000,0.612
4741.462,1082.500,0.610
4744.518,1083.000,0.610
4747.578,1083.500,0.610
4750.645,1084.000,0.610
4753.716,1084.500,0.610
4756.774,1085.000,0.609
4759.837,1085.500,0.609
4762.913,1086.000,0.609
