Time (s),Temperature (K),Mass (mg)
0.000,297.000,4.066
16.524,297.500,4.065
28.633,298.000,4.062
38.533,298.500,4.062
47.150,299.000,4.061
54.939,299.500,4.063
62.108,300.000,4.062
68.656,300.500,4.062
74.908,301.000,4.063
80.822,301.500,4.063
86.426,302.000,4.063
91.839,302.500,4.063
97.018,303.000,4.063
102.067,303.500,4.063
106.898,304.000,4.061
111.624,304.500,4.062
116.252,305.000,4.063
120.752,305.500,4.064
125.165,306.000,4.062
129.467,306.500,4.062
133.707,307.000,4.063
137.854,307.500,4.063
141.954,308.000,4.062
145.965,308.500,4.063
149.915,309.000,4.063
153.806,309.500,4.062
157.679,310.000,4.061
161.495,310.500,4.060
165.280,311.000,4.059
168.981,311.500,4.059
172.675,312.000,4.058
176.326,312.500,4.060
179.933,313.000,4.058
183.516,313.500,4.058
187.066,314.000,4.058
190.571,314.500,4.058
194.059,315.000,4.056
197.547,315.500,4.055
200.965,316.000,4.055
204.397,316.500,4.054
207.788,317.000,4.055
211.172,317.500,4.054
214.520,318.000,4.054
217.844,318.500,4.052
221.163,319.000,4.053
224.438,319.500,4.051
227.733,320.000,4.053
230.998,320.500,4.051
234.271,321.000,4.051
237.507,321.500,4.051
240.720,322.000,4.051
243.920,322.500,4.050
247.099,323.000,4.050
250.283,323.500,4.050
253.466,324.000,4.050
256.627,324.500,4.049
259.769,325.000,4.050
262.896,325.500,4.048
266.029,326.000,4.049
269.146,326.500,4.047
272.255,327.000,4.048
275.368,327.500,4.046
278.465,328.000,4.045
281.540,328.500,4.045
284.626,329.000,4.044
287.691,329.500,4.044
290.745,330.000,4.042
293.813,330.500,4.041
296.855,331.000,4.041
299.888,331.500,4.041
302.916,332.000,4.041
305.943,332.500,4.041
308.960,333.000,4.041
311.971,333.500,4.040
314.974,334.000,4.039
317.961,334.500,4.039
320.961,335.000,4.037
323.953,335.500,4.035
326.931,336.000,4.034
329.905,336.500,4.033
332.877,337.000,4.033
335.848,337.500,4.032
338.813,338.000,4.032
341.764,338.500,4.031
344.712,339.000,4.031
347.654,339.500,4.030
350.599,340.000,4.029
353.533,340.500,4.029
356.475,341.000,4.029
359.392,341.500,4.028
362.341,342.000,4.028
365.251,342.500,4.027
368.178,343.000,4.027
371.079,343.500,4.026
374.008,344.000,4.024
376.916,344.500,4.024
379.817,345.000,4.024
382.704,345.500,4.024
385.608,346.000,4.022
388.506,346.500,4.022
391.392,347.000,4.022
394.272,347.500,4.020
397.173,348.000,4.020
400.062,348.500,4.016
402.945,349.000,4.015
405.823,349.500,4.015
408.688,350.000,4.014
411.572,350.500,4.013
414.436,351.000,4.013
417.303,351.500,4.012
420.179,352.000,4.011
423.039,352.500,4.011
425.905,353.000,4.011
428.764,353.500,4.008
431.622,354.000,4.008
434.493,354.500,4.008
437.349,355.000,4.008
440.202,355.500,4.007
443.059,356.000,4.006
445.916,356.500,4.006
448.758,357.000,4.006
451.614,357.500,4.005
454.462,358.000,4.003
457.295,358.500,4.001
460.143,359.000,4.001
462.991,359.500,3.999
465.849,360.000,3.999
468.688,360.500,3.999
471.526,361.000,3.999
474.371,361.500,3.999
477.212,362.000,3.999
480.039,362.500,3.999
482.876,363.000,3.999
485.710,363.500,3.999
488.551,364.000,3.999
491.388,364.500,3.999
494.228,365.000,3.997
497.074,365.500,3.997
499.898,366.000,3.997
502.743,366.500,3.997
505.570,367.000,3.997
508.390,367.500,3.995
511.231,368.000,3.995
514.050,368.500,3.995
516.882,369.000,3.995
519.722,369.500,3.993
522.560,370.000,3.993
525.382,370.500,3.993
528.222,371.000,3.992
531.054,371.500,3.991
533.885,372.000,3.991
536.714,372.500,3.991
539.550,373.000,3.991
542.361,373.500,3.990
545.205,374.000,3.990
548.026,374.500,3.989
550.849,375.000,3.990
553.684,375.500,3.990
556.506,376.000,3.989
559.361,376.500,3.989
562.176,377.000,3.989
565.011,377.500,3.989
567.832,378.000,3.989
570.676,378.500,3.989
573.508,379.000,3.989
576.326,379.500,3.989
579.161,380.000,3.989
581.983,380.500,3.989
584.808,381.000,3.988
587.645,381.500,3.988
590.482,382.000,3.988
593.314,382.500,3.988
596.141,383.000,3.988
598.973,383.500,3.987
601.816,384.000,3.987
604.647,384.500,3.986
607.478,385.000,3.987
610.300,385.500,3.987
613.139,386.000,3.985
615.962,386.500,3.985
618.812,387.000,3.985
621.642,387.500,3.987
624.478,388.000,3.987
627.309,388.500,3.985
630.156,389.000,3.985
632.975,389.500,3.985
635.803,390.000,3.987
638.635,390.500,3.987
641.457,391.000,3.987
644.293,391.500,3.987
647.131,392.000,3.985
649.956,392.500,3.985
652.794,393.000,3.985
655.625,393.500,3.987
658.451,394.000,3.987
661.283,394.500,3.987
664.120,395.000,3.987
666.943,395.500,3.985
669.779,396.000,3.985
672.614,396.500,3.985
675.447,397.000,3.987
678.269,397.500,3.986
681.111,398.000,3.985
683.947,398.500,3.985
686.776,399.000,3.985
689.613,399.500,3.985
692.453,400.000,3.985
695.276,400.500,3.983
698.113,401.000,3.983
700.950,401.500,3.983
703.775,402.000,3.985
706.616,402.500,3.985
709.442,403.000,3.985
712.283,403.500,3.985
715.118,404.000,3.985
717.965,404.500,3.985
720.807,405.000,3.985
723.644,405.500,3.985
726.462,406.000,3.985
729.309,406.500,3.985
732.150,407.000,3.985
734.985,407.500,3.985
737.814,408.000,3.985
740.652,408.500,3.984
743.499,409.000,3.984
746.324,409.500,3.984
749.154,410.000,3.984
751.994,410.500,3.983
754.829,411.000,3.983
757.664,411.500,3.983
760.497,412.000,3.983
763.328,412.500,3.984
766.178,413.000,3.984
769.014,413.500,3.984
771.841,414.000,3.984
774.687,414.500,3.985
777.516,415.000,3.985
780.369,415.500,3.985
783.201,416.000,3.985
786.036,416.500,3.985
788.872,417.000,3.985
791.709,417.500,3.985
794.550,418.000,3.984
797.389,418.500,3.985
800.239,419.000,3.984
803.067,419.500,3.984
805.916,420.000,3.984
808.750,420.500,3.984
811.594,421.000,3.985
814.431,421.500,3.984
817.267,422.000,3.984
820.110,422.500,3.984
822.948,423.000,3.984
825.810,423.500,3.984
828.630,424.000,3.983
831.473,424.500,3.984
834.315,425.000,3.984
837.156,425.500,3.984
839.990,426.000,3.984
842.828,426.500,3.984
845.669,427.000,3.984
848.522,427.500,3.985
851.354,428.000,3.985
854.188,428.500,3.984
857.035,429.000,3.984
859.882,429.500,3.984
862.722,430.000,3.984
865.571,430.500,3.985
868.412,431.000,3.985
871.237,431.500,3.983
874.084,432.000,3.983
876.931,432.500,3.983
879.778,433.000,3.983
882.612,433.500,3.983
885.450,434.000,3.983
888.289,434.500,3.983
891.133,435.000,3.983
893.972,435.500,3.983
896.814,436.000,3.983
899.642,436.500,3.983
902.494,437.000,3.983
905.333,437.500,3.981
908.173,438.000,3.981
911.014,438.500,3.981
913.856,439.000,3.981
916.699,439.500,3.981
919.535,440.000,3.981
922.362,440.500,3.981
925.208,441.000,3.981
928.053,441.500,3.982
930.892,442.000,3.982
933.722,442.500,3.980
936.556,443.000,3.980
939.403,443.500,3.980
942.245,444.000,3.980
945.083,444.500,3.980
947.913,445.000,3.980
950.758,445.500,3.980
953.591,446.000,3.980
956.435,446.500,3.980
959.270,447.000,3.980
962.111,447.500,3.978
964.956,448.000,3.978
967.793,448.500,3.978
970.636,449.000,3.978
973.472,449.500,3.978
976.299,450.000,3.978
979.145,450.500,3.978
981.989,451.000,3.978
984.835,451.500,3.978
987.666,452.000,3.978
990.520,452.500,3.978
993.348,453.000,3.978
996.190,453.500,3.978
999.031,454.000,3.978
1001.873,454.500,3.978
1004.715,455.000,3.978
1007.556,455.500,3.978
1010.392,456.000,3.978
1013.242,456.500,3.978
1016.067,457.000,3.976
1018.900,457.500,3.974
1021.750,458.000,3.973
1024.594,458.500,3.973
1027.430,459.000,3.972
1030.271,459.500,3.972
1033.107,460.000,3.970
1035.939,460.500,3.970
1038.794,461.000,3.969
1041.626,461.500,3.969
1044.474,462.000,3.969
1047.306,462.500,3.969
1050.161,463.000,3.968
1052.990,463.500,3.966
1055.833,464.000,3.966
1058.669,464.500,3.966
1061.522,465.000,3.965
1064.355,465.500,3.963
1067.182,466.000,3.963
1070.035,466.500,3.962
1072.871,467.000,3.961
1075.702,467.500,3.961
1078.545,468.000,3.961
1081.395,468.500,3.959
1084.246,469.000,3.958
1087.073,469.500,3.958
1089.924,470.000,3.957
1092.768,470.500,3.957
1095.593,471.000,3.956
1098.436,471.500,3.956
1101.282,472.000,3.956
1104.122,472.500,3.955
1106.957,473.000,3.954
1109.808,473.500,3.954
1112.647,474.000,3.952
1115.499,474.500,3.952
1118.347,475.000,3.950
1121.190,475.500,3.950
1124.029,476.000,3.949
1126.880,476.500,3.947
1129.716,477.000,3.947
1132.558,477.500,3.945
1135.396,478.000,3.944
1138.248,478.500,3.943
1141.085,479.000,3.942
1143.920,479.500,3.942
1146.767,480.000,3.941
1149.612,480.500,3.939
1152.450,481.000,3.937
1155.293,481.500,3.937
1158.128,482.000,3.936
1160.979,482.500,3.935
1163.833,483.000,3.933
1166.668,483.500,3.931
1169.516,484.000,3.931
1172.348,484.500,3.929
1175.196,485.000,3.929
1178.047,485.500,3.927
1180.877,486.000,3.926
1183.729,486.500,3.924
1186.572,487.000,3.923
1189.413,487.500,3.922
1192.265,488.000,3.921
1195.104,488.500,3.919
1197.946,489.000,3.919
1200.789,489.500,3.917
1203.616,490.000,3.917
1206.469,490.500,3.915
1209.295,491.000,3.914
1212.145,491.500,3.913
1214.986,492.000,3.912
1217.827,492.500,3.911
1220.669,493.000,3.909
1223.510,493.500,3.907
1226.352,494.000,3.907
1229.192,494.500,3.905
1232.026,495.000,3.905
1234.878,495.500,3.903
1237.728,496.000,3.902
1240.556,496.500,3.901
1243.402,497.000,3.900
1246.258,497.500,3.898
1249.084,498.000,3.896
1251.935,498.500,3.892
1254.778,499.000,3.892
1257.614,499.500,3.890
1260.456,500.000,3.888
1263.303,500.500,3.887
1266.133,501.000,3.885
1268.985,501.500,3.882
1271.836,502.000,3.880
1274.685,502.500,3.878
1277.528,503.000,3.878
1280.373,503.500,3.876
1283.216,504.000,3.876
1286.055,504.500,3.874
1288.905,505.000,3.872
1291.752,505.500,3.871
1294.593,506.000,3.870
1297.431,506.500,3.868
1300.277,507.000,3.867
1303.130,507.500,3.866
1305.977,508.000,3.864
1308.827,508.500,3.862
1311.666,509.000,3.862
1314.526,509.500,3.860
1317.360,510.000,3.859
1320.208,510.500,3.857
1323.049,511.000,3.856
1325.901,511.500,3.855
1328.741,512.000,3.855
1331.586,512.500,3.854
1334.445,513.000,3.853
1337.283,513.500,3.851
1340.139,514.000,3.849
1342.979,514.500,3.847
1345.836,515.000,3.845
1348.677,515.500,3.843
1351.518,516.000,3.842
1354.378,516.500,3.839
1357.214,517.000,3.839
1360.067,517.500,3.837
1362.903,518.000,3.835
1365.756,518.500,3.833
1368.612,519.000,3.831
1371.450,519.500,3.828
1374.306,520.000,3.826
1377.156,520.500,3.822
1380.010,521.000,3.820
1382.859,521.500,3.817
1385.702,522.000,3.815
1388.556,522.500,3.812
1391.393,523.000,3.810
1394.245,523.500,3.808
1397.101,524.000,3.806
1399.950,524.500,3.804
1402.804,525.000,3.802
1405.656,525.500,3.800
1408.509,526.000,3.798
1411.356,526.500,3.796
1414.213,527.000,3.794
1417.054,527.500,3.790
1419.901,528.000,3.789
1422.756,528.500,3.786
1425.618,529.000,3.783
1428.471,529.500,3.781
1431.329,530.000,3.778
1434.179,530.500,3.776
1437.032,531.000,3.772
1439.888,531.500,3.770
1442.749,532.000,3.766
1445.608,532.500,3.764
1448.469,533.000,3.762
1451.316,533.500,3.759
1454.172,534.000,3.756
1457.035,534.500,3.753
1459.893,535.000,3.748
1462.756,535.500,3.744
1465.616,536.000,3.740
1468.472,536.500,3.738
1471.333,537.000,3.734
1474.186,537.500,3.732
1477.050,538.000,3.729
1479.908,538.500,3.726
1482.774,539.000,3.723
1485.641,539.500,3.721
1488.485,540.000,3.718
1491.349,540.500,3.716
1494.220,541.000,3.713
1497.076,541.500,3.709
1499.933,542.000,3.705
1502.801,542.500,3.702
1505.664,543.000,3.699
1508.528,543.500,3.694
1511.402,544.000,3.687
1514.268,544.500,3.683
1517.135,545.000,3.678
1519.990,545.500,3.673
1522.858,546.000,3.670
1525.718,546.500,3.667
1528.593,547.000,3.665
1531.458,547.500,3.661
1534.322,548.000,3.659
1537.179,548.500,3.655
1540.045,549.000,3.652
1542.902,549.500,3.648
1545.779,550.000,3.644
1548.649,550.500,3.640
1551.504,551.000,3.635
1554.371,551.500,3.630
1557.238,552.000,3.625
1560.116,552.500,3.619
1562.998,553.000,3.612
1565.863,553.500,3.607
1568.745,554.000,3.601
1571.608,554.500,3.596
1574.486,555.000,3.591
1577.349,555.500,3.588
1580.222,556.000,3.584
1583.101,556.500,3.581
1585.967,557.000,3.577
1588.830,557.500,3.572
1591.700,558.000,3.570
1594.587,558.500,3.564
1597.444,559.000,3.559
1600.317,559.500,3.555
1603.198,560.000,3.549
1606.068,560.500,3.542
1608.949,561.000,3.536
1611.815,561.500,3.531
1614.699,562.000,3.524
1617.583,562.500,3.517
1620.457,563.000,3.511
1623.331,563.500,3.503
1626.209,564.000,3.497
1629.088,564.500,3.491
1631.964,565.000,3.484
1634.836,565.500,3.480
1637.720,566.000,3.474
1640.606,566.500,3.470
1643.464,567.000,3.464
1646.358,567.500,3.458
1649.228,568.000,3.452
1652.114,568.500,3.446
1654.980,569.000,3.441
1657.864,569.500,3.434
1660.751,570.000,3.428
1663.619,570.500,3.422
1666.497,571.000,3.415
1669.385,571.500,3.409
1672.264,572.000,3.402
1675.137,572.500,3.395
1678.022,573.000,3.389
1680.905,573.500,3.383
1683.790,574.000,3.375
1686.660,574.500,3.367
1689.541,575.000,3.360
1692.433,575.500,3.353
1695.317,576.000,3.346
1698.196,576.500,3.338
1701.065,577.000,3.331
1703.954,577.500,3.323
1706.839,578.000,3.314
1709.726,578.500,3.305
1712.614,579.000,3.299
1715.499,579.500,3.291
1718.379,580.000,3.285
1721.260,580.500,3.278
1724.156,581.000,3.269
1727.047,581.500,3.261
1729.933,582.000,3.252
1732.808,582.500,3.244
1735.707,583.000,3.235
1738.587,583.500,3.227
1741.483,584.000,3.219
1744.389,584.500,3.211
1747.269,585.000,3.202
1750.160,585.500,3.195
1753.048,586.000,3.187
1755.933,586.500,3.179
1758.839,587.000,3.170
1761.722,587.500,3.161
1764.606,588.000,3.153
1767.506,588.500,3.145
1770.399,589.000,3.136
1773.288,589.500,3.127
1776.180,590.000,3.120
1779.086,590.500,3.110
1781.977,591.000,3.101
1784.871,591.500,3.092
1787.768,592.000,3.084
1790.651,592.500,3.076
1793.551,593.000,3.068
1796.441,593.500,3.058
1799.345,594.000,3.048
1802.245,594.500,3.038
1805.149,595.000,3.029
1808.056,595.500,3.020
1810.939,596.000,3.009
1813.856,596.500,3.000
1816.737,597.000,2.991
1819.642,597.500,2.982
1822.541,598.000,2.971
1825.450,598.500,2.961
1828.345,599.000,2.951
1831.257,599.500,2.939
1834.153,600.000,2.928
1837.063,600.500,2.917
1839.963,601.000,2.907
1842.873,601.500,2.897
1845.775,602.000,2.889
1848.681,602.500,2.877
1851.582,603.000,2.867
1854.495,603.500,2.857
1857.388,604.000,2.847
1860.289,604.500,2.837
1863.192,605.000,2.825
1866.110,605.500,2.815
1869.017,606.000,2.804
1871.922,606.500,2.793
1874.833,607.000,2.782
1877.743,607.500,2.770
1880.657,608.000,2.758
1883.551,608.500,2.747
1886.463,609.000,2.735
1889.368,609.500,2.724
1892.277,610.000,2.712
1895.201,610.500,2.701
1898.106,611.000,2.688
1901.026,611.500,2.676
1903.927,612.000,2.664
1906.840,612.500,2.651
1909.747,613.000,2.640
1912.669,613.500,2.627
1915.583,614.000,2.615
1918.500,614.500,2.603
1921.410,615.000,2.591
1924.327,615.500,2.577
1927.242,616.000,2.566
1930.160,616.500,2.554
1933.081,617.000,2.542
1936.001,617.500,2.529
1938.917,618.000,2.517
1941.832,618.500,2.505
1944.756,619.000,2.493
1947.670,619.500,2.477
1950.588,620.000,2.463
1953.510,620.500,2.445
1956.436,621.000,2.428
1959.361,621.500,2.415
1962.280,622.000,2.404
1965.199,622.500,2.392
1968.122,623.000,2.380
1971.058,623.500,2.368
1973.986,624.000,2.354
1976.912,624.500,2.337
1979.839,625.000,2.318
1982.773,625.500,2.301
1985.710,626.000,2.284
1988.641,626.500,2.270
1991.591,627.000,2.258
1994.505,627.500,2.247
1997.441,628.000,2.233
2000.377,628.500,2.220
2003.314,629.000,2.203
2006.251,629.500,2.185
2009.184,630.000,2.166
2012.127,630.500,2.149
2015.073,631.000,2.135
2018.011,631.500,2.121
2020.962,632.000,2.107
2023.892,632.500,2.090
2026.839,633.000,2.074
2029.769,633.500,2.055
2032.722,634.000,2.040
2035.669,634.500,2.026
2038.600,635.000,2.013
2041.554,635.500,1.997
2044.498,636.000,1.974
2047.436,636.500,1.954
2050.386,637.000,1.936
2053.345,637.500,1.916
2056.280,638.000,1.897
2059.222,638.500,1.879
2062.164,639.000,1.860
2065.106,639.500,1.842
2068.057,640.000,1.824
2071.009,640.500,1.804
2073.949,641.000,1.785
2076.897,641.500,1.766
2079.823,642.000,1.746
2082.763,642.500,1.727
2085.716,643.000,1.707
2088.640,643.500,1.688
2091.579,644.000,1.668
2094.508,644.500,1.649
2097.442,645.000,1.628
2100.373,645.500,1.608
2103.314,646.000,1.589
2106.211,646.500,1.569
2109.156,647.000,1.549
2112.065,647.500,1.530
2114.995,648.000,1.511
2117.902,648.500,1.491
2120.828,649.000,1.471
2123.733,649.500,1.450
2126.627,650.000,1.431
2129.533,650.500,1.413
2132.429,651.000,1.395
2135.316,651.500,1.377
2138.208,652.000,1.360
2141.099,652.500,1.343
2143.973,653.000,1.326
2146.848,653.500,1.310
2149.739,654.000,1.296
2152.597,654.500,1.282
2155.471,655.000,1.267
2158.339,655.500,1.253
2161.206,656.000,1.239
2164.065,656.500,1.225
2166.924,657.000,1.212
2169.790,657.500,1.203
2172.654,658.000,1.192
2175.503,658.500,1.183
2178.354,659.000,1.173
2181.209,659.500,1.163
2184.071,660.000,1.155
2186.928,660.500,1.147
2189.801,661.000,1.139
2192.669,661.500,1.132
2195.533,662.000,1.124
2198.396,662.500,1.118
2201.271,663.000,1.113
2204.153,663.500,1.108
2207.042,664.000,1.103
2209.933,664.500,1.099
2212.828,665.000,1.096
2215.720,665.500,1.091
2218.616,666.000,1.089
2221.526,666.500,1.085
2224.449,667.000,1.083
2227.357,667.500,1.080
2230.291,668.000,1.076
2233.205,668.500,1.074
2236.137,669.000,1.072
2239.066,669.500,1.068
2241.994,670.000,1.066
2244.916,670.500,1.065
2247.846,671.000,1.062
2250.786,671.500,1.060
2253.715,672.000,1.058
2256.640,672.500,1.056
2259.582,673.000,1.054
2262.522,673.500,1.052
2265.451,674.000,1.050
2268.396,674.500,1.049
2271.341,675.000,1.046
2274.273,675.500,1.044
2277.216,676.000,1.042
2280.157,676.500,1.040
2283.104,677.000,1.040
2286.039,677.500,1.038
2288.991,678.000,1.038
2291.927,678.500,1.036
2294.872,679.000,1.034
2297.819,679.500,1.033
2300.755,680.000,1.031
2303.702,680.500,1.028
2306.650,681.000,1.028
2309.592,681.500,1.026
2312.533,682.000,1.023
2315.481,682.500,1.022
2318.432,683.000,1.021
2321.380,683.500,1.019
2324.324,684.000,1.017
2327.268,684.500,1.015
2330.213,685.000,1.014
2333.163,685.500,1.012
2336.114,686.000,1.010
2339.067,686.500,1.009
2342.017,687.000,1.008
2344.963,687.500,1.006
2347.910,688.000,1.005
2350.875,688.500,1.002
2353.827,689.000,1.002
2356.779,689.500,1.000
2359.727,690.000,0.998
2362.675,690.500,0.997
2365.633,691.000,0.996
2368.583,691.500,0.995
2371.539,692.000,0.994
2374.486,692.500,0.992
2377.445,693.000,0.989
2380.398,693.500,0.989
2383.357,694.000,0.987
2386.310,694.500,0.985
2389.290,695.000,0.984
2392.225,695.500,0.982
2395.186,696.000,0.981
2398.141,696.500,0.980
2401.105,697.000,0.978
2404.069,697.500,0.976
2407.022,698.000,0.973
2409.990,698.500,0.971
2412.939,699.000,0.968
2415.906,699.500,0.966
2418.879,700.000,0.966
2421.844,700.500,0.964
2424.803,701.000,0.962
2427.752,701.500,0.961
2430.722,702.000,0.960
2433.698,702.500,0.958
2436.656,703.000,0.957
2439.627,703.500,0.956
2442.597,704.000,0.953
2445.563,704.500,0.953
2448.531,705.000,0.951
2451.484,705.500,0.950
2454.469,706.000,0.948
2457.433,706.500,0.947
2460.401,707.000,0.946
2463.371,707.500,0.945
2466.353,708.000,0.943
2469.315,708.500,0.941
2472.292,709.000,0.939
2475.249,709.500,0.941
2478.229,710.000,0.939
2481.215,710.500,0.937
2484.176,711.000,0.935
2487.163,711.500,0.934
2490.122,712.000,0.933
2493.097,712.500,0.931
2496.085,713.000,0.930
2499.057,713.500,0.928
2502.034,714.000,0.926
2505.011,714.500,0.926
2507.992,715.000,0.924
2510.959,715.500,0.922
2513.941,716.000,0.921
2516.912,716.500,0.920
2519.900,717.000,0.919
2522.880,717.500,0.919
2525.857,718.000,0.918
2528.848,718.500,0.917
2531.821,719.000,0.916
2534.804,719.500,0.915
2537.788,720.000,0.913
2540.769,720.500,0.913
2543.749,721.000,0.911
2546.727,721.500,0.911
2549.703,722.000,0.909
2552.689,722.500,0.908
2555.667,723.000,0.906
2558.652,723.500,0.905
2561.630,724.000,0.903
2564.629,724.500,0.903
2567.611,725.000,0.902
2570.587,725.500,0.900
2573.575,726.000,0.898
2576.563,726.500,0.896
2579.533,727.000,0.895
2582.533,727.500,0.894
2585.510,728.000,0.892
2588.503,728.500,0.891
2591.497,729.000,0.890
2594.478,729.500,0.889
2597.451,730.000,0.887
2600.442,730.500,0.887
2603.429,731.000,0.885
2606.421,731.500,0.885
2609.405,732.000,0.885
2612.391,732.500,0.883
2615.373,733.000,0.883
2618.367,733.500,0.883
2621.343,734.000,0.881
2624.335,734.500,0.880
2627.329,735.000,0.878
2630.320,735.500,0.877
2633.308,736.000,0.876
2636.309,736.500,0.875
2639.281,737.000,0.876
2642.275,737.500,0.874
2645.269,738.000,0.874
2648.260,738.500,0.874
2651.242,739.000,0.872
2654.233,739.500,0.872
2657.221,740.000,0.870
2660.215,740.500,0.868
2663.218,741.000,0.867
2666.193,741.500,0.866
2669.183,742.000,0.865
2672.183,742.500,0.864
2675.173,743.000,0.863
2678.152,743.500,0.863
2681.153,744.000,0.862
2684.141,744.500,0.861
2687.135,745.000,0.860
2690.129,745.500,0.858
2693.115,746.000,0.858
2696.112,746.500,0.856
2699.100,747.000,0.856
2702.093,747.500,0.856
2705.079,748.000,0.854
2708.065,748.500,0.854
2711.062,749.000,0.854
2714.061,749.500,0.854
2717.041,750.000,0.854
2720.024,750.500,0.854
2723.022,751.000,0.854
2726.017,751.500,0.854
2729.011,752.000,0.852
2731.999,752.500,0.851
2735.005,753.000,0.850
2737.992,753.500,0.848
2740.980,754.000,0.847
2743.964,754.500,0.846
2746.952,755.000,0.843
2749.946,755.500,0.843
2752.939,756.000,0.841
2755.939,756.500,0.841
2758.927,757.000,0.843
2761.915,757.500,0.841
2764.909,758.000,0.841
2767.909,758.500,0.841
2770.903,759.000,0.839
2773.897,759.500,0.838
2776.885,760.000,0.838
2779.879,760.500,0.837
2782.862,761.000,0.837
2785.867,761.500,0.836
2788.855,762.000,0.835
2791.848,762.500,0.835
2794.849,763.000,0.834
2797.833,763.500,0.833
2800.831,764.000,0.832
2803.825,764.500,0.831
2806.821,765.000,0.830
2809.818,765.500,0.831
2812.817,766.000,0.830
2815.807,766.500,0.828
2818.806,767.000,0.829
2821.811,767.500,0.829
2824.800,768.000,0.827
2827.794,768.500,0.827
2830.788,769.000,0.827
2833.794,769.500,0.825
2836.794,770.000,0.825
2839.776,770.500,0.823
2842.786,771.000,0.824
2845.782,771.500,0.823
2848.773,772.000,0.823
2851.773,772.500,0.823
2854.757,773.000,0.823
2857.771,773.500,0.822
2860.763,774.000,0.821
2863.759,774.500,0.821
2866.759,775.000,0.820
2869.759,775.500,0.820
2872.758,776.000,0.819
2875.771,776.500,0.819
2878.762,777.000,0.819
2881.763,777.500,0.818
2884.753,778.000,0.817
2887.758,778.500,0.817
2890.757,779.000,0.816
2893.764,779.500,0.816
2896.767,780.000,0.815
2899.757,780.500,0.814
2902.767,781.000,0.814
2905.776,781.500,0.814
2908.782,782.000,0.812
2911.782,782.500,0.812
2914.789,783.000,0.812
2917.791,783.500,0.810
2920.806,784.000,0.810
2923.805,784.500,0.809
2926.811,785.000,0.809
2929.812,785.500,0.808
2932.819,786.000,0.808
2935.836,786.500,0.807
2938.819,787.000,0.807
2941.836,787.500,0.806
2944.839,788.000,0.805
2947.855,788.500,0.804
2950.861,789.000,0.804
2953.873,789.500,0.803
2956.880,790.000,0.803
2959.891,790.500,0.802
2962.909,791.000,0.801
2965.903,791.500,0.801
2968.915,792.000,0.800
2971.927,792.500,0.800
2974.933,793.000,0.798
2977.939,793.500,0.798
2980.939,794.000,0.798
2983.958,794.500,0.798
2986.974,795.000,0.798
2989.982,795.500,0.798
2992.983,796.000,0.798
2995.993,796.500,0.796
2999.006,797.000,0.796
3002.012,797.500,0.796
3005.030,798.000,0.794
3008.029,798.500,0.794
3011.058,799.000,0.792
3014.050,799.500,0.792
3017.068,800.000,0.791
3020.080,800.500,0.790
3023.104,801.000,0.790
3026.115,801.500,0.789
3029.119,802.000,0.788
3032.133,802.500,0.789
3035.151,803.000,0.789
3038.155,803.500,0.789
3041.173,804.000,0.789
3044.187,804.500,0.788
3047.203,805.000,0.788
3050.212,805.500,0.788
3053.228,806.000,0.787
3056.246,806.500,0.787
3059.255,807.000,0.787
3062.266,807.500,0.786
3065.281,808.000,0.786
3068.291,808.500,0.785
3071.305,809.000,0.784
3074.309,809.500,0.783
3077.327,810.000,0.783
3080.347,810.500,0.783
3083.362,811.000,0.782
3086.379,811.500,0.781
3089.394,812.000,0.781
3092.412,812.500,0.781
3095.419,813.000,0.782
3098.442,813.500,0.780
3101.455,814.000,0.780
3104.462,814.500,0.781
3107.463,815.000,0.781
3110.491,815.500,0.781
3113.503,816.000,0.781
3116.521,816.500,0.779
3119.527,817.000,0.779
3122.557,817.500,0.778
3125.570,818.000,0.778
3128.586,818.500,0.778
3131.594,819.000,0.777
3134.617,819.500,0.776
3137.631,820.000,0.776
3140.653,820.500,0.776
3143.667,821.000,0.775
3146.673,821.500,0.775
3149.683,822.000,0.774
3152.700,822.500,0.774
3155.723,823.000,0.774
3158.735,823.500,0.774
3161.754,824.000,0.773
3164.758,824.500,0.773
3167.772,825.000,0.772
3170.789,825.500,0.772
3173.806,826.000,0.771
3176.824,826.500,0.772
3179.821,827.000,0.772
3182.842,827.500,0.771
3185.852,828.000,0.771
3188.866,828.500,0.771
3191.881,829.000,0.769
3194.897,829.500,0.769
3197.904,830.000,0.769
3200.915,830.500,0.769
3203.925,831.000,0.767
3206.950,831.500,0.767
3209.959,832.000,0.767
3212.973,832.500,0.767
3215.979,833.000,0.764
3219.003,833.500,0.764
3222.017,834.000,0.764
3225.024,834.500,0.766
3228.039,835.000,0.765
3231.061,835.500,0.766
3234.068,836.000,0.765
3237.080,836.500,0.765
3240.103,837.000,0.764
3243.121,837.500,0.764
3246.139,838.000,0.764
3249.151,838.500,0.763
3252.157,839.000,0.763
3255.164,839.500,0.763
3258.193,840.000,0.762
3261.193,840.500,0.762
3264.217,841.000,0.762
3267.224,841.500,0.763
3270.236,842.000,0.764
3273.257,842.500,0.765
3276.261,843.000,0.764
3279.277,843.500,0.763
3282.283,844.000,0.762
3285.297,844.500,0.762
3288.311,845.000,0.759
3291.335,845.500,0.759
3294.342,846.000,0.757
3297.358,846.500,0.757
3300.378,847.000,0.756
3303.400,847.500,0.755
3306.409,848.000,0.755
3309.424,848.500,0.754
3312.451,849.000,0.753
3315.466,849.500,0.753
3318.478,850.000,0.753
3321.492,850.500,0.753
3324.503,851.000,0.751
3327.531,851.500,0.751
3330.546,852.000,0.753
3333.565,852.500,0.751
3336.591,853.000,0.751
3339.603,853.500,0.751
3342.624,854.000,0.750
3345.655,854.500,0.750
3348.667,855.000,0.750
3351.697,855.500,0.750
3354.709,856.000,0.748
3357.733,856.500,0.748
3360.740,857.000,0.748
3363.769,857.500,0.747
3366.793,858.000,0.747
3369.817,858.500,0.747
3372.824,859.000,0.748
3375.856,859.500,0.747
3378.877,860.000,0.747
3381.894,860.500,0.746
3384.915,861.000,0.746
3387.933,861.500,0.746
3390.949,862.000,0.745
3393.979,862.500,0.745
3396.999,863.000,0.744
3400.015,863.500,0.744
3403.039,864.000,0.744
3406.060,864.500,0.743
3409.072,865.000,0.743
3412.099,865.500,0.742
3415.123,866.000,0.743
3418.148,866.500,0.744
3421.156,867.000,0.743
3424.185,867.500,0.743
3427.212,868.000,0.743
3430.229,868.500,0.742
3433.239,869.000,0.742
3436.267,869.500,0.742
3439.280,870.000,0.741
3442.315,870.500,0.741
3445.327,871.000,0.741
3448.346,871.500,0.739
3451.382,872.000,0.739
3454.400,872.500,0.739
3457.418,873.000,0.739
3460.440,873.500,0.739
3463.457,874.000,0.737
3466.477,874.500,0.737
3469.507,875.000,0.737
3472.531,875.500,0.735
3475.545,876.000,0.735
3478.566,876.500,0.735
3481.597,877.000,0.735
3484.609,877.500,0.733
3487.636,878.000,0.733
3490.661,878.500,0.732
3493.679,879.000,0.731
3496.703,879.500,0.730
3499.731,880.000,0.729
3502.749,880.500,0.729
3505.764,881.000,0.728
3508.783,881.500,0.730
3511.817,882.000,0.730
3514.829,882.500,0.731
3517.846,883.000,0.731
3520.872,883.500,0.731
3523.892,884.000,0.731
3526.921,884.500,0.731
3529.933,885.000,0.733
3532.957,885.500,0.733
3535.969,886.000,0.732
3538.988,886.500,0.732
3542.005,887.000,0.730
3545.023,887.500,0.730
3548.044,888.000,0.730
3551.061,888.500,0.730
3554.080,889.000,0.729
3557.103,889.500,0.729
3560.121,890.000,0.729
3563.155,890.500,0.729
3566.167,891.000,0.728
3569.185,891.500,0.728
3572.206,892.000,0.727
3575.230,892.500,0.727
3578.236,893.000,0.728
3581.260,893.500,0.726
3584.281,894.000,0.726
3587.302,894.500,0.726
3590.308,895.000,0.728
3593.337,895.500,0.728
3596.362,896.000,0.726
3599.364,896.500,0.726
3602.391,897.000,0.724
3605.418,897.500,0.724
3608.430,898.000,0.722
3611.454,898.500,0.722
3614.472,899.000,0.722
3617.486,899.500,0.722
3620.515,900.000,0.720
3623.521,900.500,0.720
3626.539,901.000,0.720
3629.540,901.500,0.720
3632.564,902.000,0.722
3635.587,902.500,0.722
3638.593,903.000,0.722
3641.612,903.500,0.722
3644.634,904.000,0.722
3647.641,904.500,0.720
3650.658,905.000,0.722
3653.674,905.500,0.721
3656.694,906.000,0.723
3659.703,906.500,0.723
3662.731,907.000,0.722
3665.727,907.500,0.722
3668.749,908.000,0.720
3671.767,908.500,0.720
3674.779,909.000,0.719
3677.788,909.500,0.718
3680.812,910.000,0.718
3683.833,910.500,0.717
3686.836,911.000,0.717
3689.849,911.500,0.716
3692.866,912.000,0.716
3695.879,912.500,0.716
3698.892,913.000,0.716
3701.903,913.500,0.716
3704.917,914.000,0.716
3707.931,914.500,0.715
3710.946,915.000,0.717
3713.955,915.500,0.717
3716.971,916.000,0.717
3719.985,916.500,0.716
3723.005,917.000,0.716
3726.003,917.500,0.716
3729.023,918.000,0.716
3732.036,918.500,0.715
3735.045,919.000,0.715
3738.067,919.500,0.714
3741.073,920.000,0.714
3744.069,920.500,0.712
3747.091,921.000,0.712
3750.103,921.500,0.712
3753.109,922.000,0.710
3756.127,922.500,0.712
3759.139,923.000,0.713
3762.145,923.500,0.714
3765.146,924.000,0.714
3768.175,924.500,0.712
3771.181,925.000,0.712
3774.194,925.500,0.712
3777.217,926.000,0.712
3780.221,926.500,0.712
3783.221,927.000,0.710
3786.225,927.500,0.710
3789.246,928.000,0.710
3792.253,928.500,0.710
3795.252,929.000,0.710
3798.267,929.500,0.710
3801.276,930.000,0.710
3804.286,930.500,0.710
3807.282,931.000,0.710
3810.289,931.500,0.710
3813.294,932.000,0.710
3816.299,932.500,0.710
3819.301,933.000,0.710
3822.311,933.500,0.708
3825.307,934.000,0.708
3828.305,934.500,0.707
3831.321,935.000,0.707
3834.321,935.500,0.708
3837.341,936.000,0.707
3840.351,936.500,0.708
3843.357,937.000,0.708
3846.361,937.500,0.707
3849.361,938.000,0.707
3852.384,938.500,0.707
3855.394,939.000,0.706
3858.385,939.500,0.707
3861.401,940.000,0.707
3864.406,940.500,0.706
3867.406,941.000,0.706
3870.415,941.500,0.706
3873.418,942.000,0.705
3876.427,942.500,0.705
3879.436,943.000,0.704
3882.443,943.500,0.703
3885.446,944.000,0.703
3888.448,944.500,0.702
3891.455,945.000,0.702
3894.469,945.500,0.701
3897.476,946.000,0.701
3900.480,946.500,0.702
3903.480,947.000,0.702
3906.490,947.500,0.702
3909.496,948.000,0.702
3912.497,948.500,0.700
3915.517,949.000,0.700
3918.517,949.500,0.700
3921.525,950.000,0.700
3924.529,950.500,0.700
3927.541,951.000,0.700
3930.550,951.500,0.698
3933.553,952.000,0.699
3936.555,952.500,0.699
3939.564,953.000,0.699
3942.579,953.500,0.699
3945.582,954.000,0.699
3948.599,954.500,0.699
3951.609,955.000,0.699
3954.613,955.500,0.697
3957.631,956.000,0.697
3960.643,956.500,0.697
3963.648,957.000,0.697
3966.655,957.500,0.697
3969.668,958.000,0.695
3972.685,958.500,0.696
3975.686,959.000,0.697
3978.704,959.500,0.695
3981.715,960.000,0.696
3984.727,960.500,0.695
3987.733,961.000,0.695
3990.752,961.500,0.694
3993.751,962.000,0.694
3996.781,962.500,0.694
3999.783,963.000,0.694
4002.817,963.500,0.693
4005.822,964.000,0.694
4008.830,964.500,0.694
4011.846,965.000,0.694
4014.858,965.500,0.693
4017.877,966.000,0.693
4020.894,966.500,0.694
4023.907,967.000,0.694
4026.913,967.500,0.693
4029.927,968.000,0.693
4032.933,968.500,0.693
4035.948,969.000,0.693
4038.962,969.500,0.693
4041.988,970.000,0.693
4045.003,970.500,0.692
4048.018,971.000,0.692
4051.036,971.500,0.692
4054.057,972.000,0.692
4057.073,972.500,0.692
4060.084,973.000,0.691
4063.109,973.500,0.691
4066.131,974.000,0.691
4069.127,974.500,0.691
4072.157,975.000,0.691
4075.170,975.500,0.691
4078.199,976.000,0.690
4081.211,976.500,0.690
4084.217,977.000,0.690
4087.242,977.500,0.690
4090.256,978.000,0.690
4093.280,978.500,0.690
4096.297,979.000,0.692
4099.310,979.500,0.691
4102.339,980.000,0.691
4105.352,980.500,0.691
4108.381,981.000,0.691
4111.389,981.500,0.689
4114.415,982.000,0.689
4117.429,982.500,0.689
4120.467,983.000,0.689
4123.483,983.500,0.687
4126.502,984.000,0.687
4129.527,984.500,0.687
4132.564,985.000,0.685
4135.570,985.500,0.685
4138.593,986.000,0.685
4141.624,986.500,0.685
4144.654,987.000,0.684
4147.673,987.500,0.683
4150.693,988.000,0.685
4153.727,988.500,0.685
4156.747,989.000,0.685
4159.791,989.500,0.687
4162.817,990.000,0.687
4165.835,990.500,0.685
4168.866,991.000,0.685
4171.886,991.500,0.685
4174.910,992.000,0.685
4177.945,992.500,0.684
4180.970,993.000,0.684
4183.999,993.500,0.683
4187.030,994.000,0.683
4190.059,994.500,0.683
4193.085,995.000,0.682
4196.115,995.500,0.681
4199.133,996.000,0.681
4202.171,996.500,0.681
4205.212,997.000,0.681
4208.239,997.500,0.681
4211.260,998.000,0.680
4214.295,998.500,0.680
4217.323,999.000,0.680
4220.359,999.500,0.679
4223.395,1000.000,0.681
4226.430,1000.500,0.680
4229.461,1001.000,0.681
4232.491,1001.500,0.680
4235.533,1002.000,0.680
4238.564,1002.500,0.680
4241.605,1003.000,0.680
4244.635,1003.500,0.680
4247.667,1004.000,0.680
4250.700,1004.500,0.679
4253.740,1005.000,0.679
4256.776,1005.500,0.679
4259.803,1006.000,0.678
4262.848,1006.500,0.678
4265.897,1007.000,0.677
4268.925,1007.500,0.677
4271.964,1008.000,0.677
4275.011,1008.500,0.676
4278.032,1009.000,0.677
4281.084,1009.500,0.675
4284.121,1010.000,0.675
4287.152,1010.500,0.675
4290.201,1011.000,0.675
4293.244,1011.500,0.676
4296.285,1012.000,0.676
4299.313,1012.500,0.675
4302.360,1013.000,0.675
4305.403,1013.500,0.676
4308.439,1014.000,0.676
4311.486,1014.500,0.676
4314.525,1015.000,0.676
4317.570,1015.500,0.674
4320.611,1016.000,0.674
4323.655,1016.500,0.675
4326.691,1017.000,0.675
4329.739,1017.500,0.676
4332.776,1018.000,0.676
4335.824,1018.500,0.676
4338.865,1019.000,0.676
4341.906,1019.500,0.676
4344.967,1020.000,0.676
4347.987,1020.500,0.675
4351.040,1021.000,0.675
4354.085,1021.500,0.675
4357.121,1022.000,0.675
4360.179,1022.500,0.675
4363.213,1023.000,0.675
4366.261,1023.500,0.675
4369.309,1024.000,0.673
4372.358,1024.500,0.673
4375.407,1025.000,0.673
4378.449,1025.500,0.674
4381.495,1026.000,0.673
4384.545,1026.500,0.673
4387.584,1027.000,0.673
4390.636,1027.500,0.673
4393.679,1028.000,0.673
4396.733,1028.500,0.673
4399.770,1029.000,0.673
4402.818,1029.500,0.673
4405.873,1030.000,0.673
4408.915,1030.500,0.674
4411.970,1031.000,0.673
4415.014,1031.500,0.673
4418.067,1032.000,0.673
4421.109,1032.500,0.674
4424.166,1033.000,0.674
4427.215,1033.500,0.674
4430.258,1034.000,0.674
4433.313,1034.500,0.673
4436.361,1035.000,0.673
4439.410,1035.500,0.673
4442.472,1036.000,0.672
4445.521,1036.500,0.672
4448.564,1037.000,0.672
4451.630,1037.500,0.672
4454.691,1038.000,0.672
4457.737,1038.500,0.673
4460.786,1039.000,0.673
4463.836,1039.500,0.672
4466.880,1040.000,0.672
4469.929,1040.500,0.672
4472.989,1041.000,0.672
4476.043,1041.500,0.671
4479.085,1042.000,0.671
4482.157,1042.500,0.670
4485.207,1043.000,0.670
4488.251,1043.500,0.671
4491.317,1044.000,0.669
4494.370,1044.500,0.667
4497.412,1045.000,0.667
4500.473,1045.500,0.667
4503.527,1046.000,0.667
4506.565,1046.500,0.667
4509.619,1047.000,0.667
4512.679,1047.500,0.667
4515.733,1048.000,0.667
4518.788,1048.500,0.667
4521.832,1049.000,0.667
4524.897,1049.500,0.667
4527.945,1050.000,0.667
4531.013,1050.500,0.667
4534.058,1051.000,0.667
4537.103,1051.500,0.667
4540.165,1052.000,0.667
4543.211,1052.500,0.667
4546.273,1053.000,0.667
4549.309,1053.500,0.667
4552.382,1054.000,0.665
4555.436,1054.500,0.665
4558.495,1055.000,0.665
4561.542,1055.500,0.667
4564.597,1056.000,0.666
4567.646,1056.500,0.666
4570.704,1057.000,0.666
4573.762,1057.500,0.666
4576.815,1058.000,0.666
4579.872,1058.500,0.666
4582.921,1059.000,0.666
4585.977,1059.500,0.666
4589.053,1060.000,0.666
4592.089,1060.500,0.666
4595.158,1061.000,0.665
4598.218,1061.500,0.665
4601.270,1062.000,0.664
4604.331,1062.500,0.664
4607.395,1063.000,0.664
4610.465,1063.500,0.664
4613.515,1064.000,0.663
4616.576,1064.500,0.665
4619.636,1065.000,0.664
4622.691,1065.500,0.664
4625.766,1066.000,0.664
4628.827,1066.500,0.664
4631.895,1067.000,0.665
4634.940,1067.500,0.665
4638.010,1068.000,0.665
4641.067,1068.500,0.664
4644.139,1069.000,0.664
4647.190,1069.500,0.663
4650.252,1070.000,0.663
4653.327,1070.500,0.663
4656.394,1071.000,0.663
4659.452,1071.500,0.664
4662.521,1072.000,0.664
4665.597,1072.500,0.665
4668.660,1073.000,0.665
4671.715,1073.500,0.665
4674.794,1074.000,0.665
4677.868,1074.500,0.665
4680.935,1075.000,0.665
4684.002,1075.500,0.665
4687.082,1076.000,0.665
4690.147,1076.500,0.665
4693.218,1077.000,0.665
4696.285,1077.500,0.664
4699.352,1078.000,0.664
4702.425,1078.500,0.663
4705.499,1079.000,0.663
4708.575,1079.500,0.663
4711.646,1080.000,0.663
4714.715,1080.500,0.662
4717.776,1081.000,0.662
4720.870,1081.500,0.662
4723.945,1082.000,0.663
4727.007,1082.500,0.661
4730.086,1083.000,0.661
4733.171,1083.500,0.661
4736.240,1084.000,0.661
4739.299,1084.500,0.661
4742.383,1085.000,0.662
4745.454,1085.500,0.662
4748.533,1086.000,0.662
4751.618,1086.500,0.662
