Time (s),Temperature (K),HRR (W/g)
73.349,409,-0.0254
73.806,409.5,-0.0277
74.283,410,-0.0198
74.773,410.5,-0.0024
75.258,411,0.0228
75.739,411.5,0.0466
76.199,412,0.0371
76.651,412.5,0.0021
77.146,413,-0.0290
77.614,413.5,-0.0377
78.078,414,-0.0711
78.552,414.5,-0.0867
79.022,415,-0.0387
79.485,415.5,-0.0295
80.005,416,-0.0085
80.486,416.5,-0.0016
80.932,417,-0.0068
81.435,417.5,-0.0333
81.917,418,-0.0469
82.398,418.5,-0.1028
82.854,419,-0.1062
83.347,419.5,-0.0334
83.831,420,-0.0024
84.298,420.5,-0.0068
84.762,421,0.0110
85.240,421.5,0.0178
85.730,422,0.0033
86.201,422.5,0.0112
86.679,423,0.0288
87.188,423.5,0.0228
87.670,424,0.0131
88.154,424.5,0.0315
88.613,425,0.0256
89.103,425.5,0.0500
89.573,426,0.0736
90.045,426.5,0.1233
90.554,427,0.0953
91.056,427.5,0.1496
91.500,428,0.1362
92.022,428.5,0.1475
92.497,429,0.1308
92.984,429.5,0.1690
93.457,430,0.1798
93.984,430.5,0.1537
94.432,431,0.1571
94.919,431.5,0.1542
95.397,432,0.1499
95.882,432.5,0.1716
96.357,433,0.2004
96.868,433.5,0.2225
97.356,434,0.2902
97.843,434.5,0.3499
98.330,435,0.3713
98.814,435.5,0.4041
99.316,436,0.4516
99.791,436.5,0.4360
100.267,437,0.4154
100.762,437.5,0.4379
101.261,438,0.4439
101.740,438.5,0.4532
102.203,439,0.4991
102.685,439.5,0.5347
103.187,440,0.5770
103.688,440.5,0.6614
104.189,441,0.6881
104.691,441.5,0.7110
105.183,442,0.7723
105.694,442.5,0.8189
106.186,443,0.8315
106.654,443.5,0.8536
107.146,444,0.8572
107.636,444.5,0.8855
108.120,445,0.9171
108.609,445.5,0.9597
109.117,446,1.0070
109.590,446.5,1.0604
110.061,447,1.1003
110.565,447.5,1.1598
111.063,448,1.1250
111.538,448.5,1.1080
112.009,449,1.2128
112.552,449.5,1.2415
113.030,450,1.2655
113.487,450.5,1.3173
113.972,451,1.3452
114.477,451.5,1.3738
114.972,452,1.3715
115.446,452.5,1.4337
115.924,453,1.4726
116.443,453.5,1.4725
116.924,454,1.5286
117.404,454.5,1.5889
117.896,455,1.6264
118.393,455.5,1.6538
118.876,456,1.6738
119.389,456.5,1.7459
119.861,457,1.7621
120.330,457.5,1.7993
120.836,458,1.8942
121.343,458.5,1.9571
121.838,459,1.9848
122.314,459.5,2.0087
122.792,460,2.0489
123.296,460.5,2.1209
123.797,461,2.1876
124.277,461.5,2.2364
124.769,462,2.2721
125.274,462.5,2.3104
125.776,463,2.3829
126.263,463.5,2.4529
126.749,464,2.4879
127.254,464.5,2.5335
127.763,465,2.5812
128.252,465.5,2.6354
128.731,466,2.6949
129.221,466.5,2.7228
129.716,467,2.7518
130.193,467.5,2.7995
130.669,468,2.8476
131.178,468.5,2.9049
131.681,469,2.9934
132.178,469.5,3.0498
132.677,470,3.1018
133.160,470.5,3.1964
133.640,471,3.2441
134.122,471.5,3.2951
134.606,472,3.3828
135.143,472.5,3.4359
135.628,473,3.5407
136.103,473.5,3.6072
136.629,474,3.6565
137.125,474.5,3.7108
137.603,475,3.8085
138.083,475.5,3.8601
138.570,476,3.9244
139.066,476.5,3.9813
139.564,477,4.0805
140.051,477.5,4.1696
140.525,478,4.2627
141.019,478.5,4.3387
141.514,479,4.4420
142.018,479.5,4.5330
142.506,480,4.6611
143.048,480.5,4.7584
143.514,481,4.8618
144.029,481.5,4.9290
144.509,482,5.0275
144.981,482.5,5.0725
145.505,483,5.2064
145.987,483.5,5.2987
146.475,484,5.3704
146.977,484.5,5.4771
147.453,485,5.5997
147.973,485.5,5.6904
148.461,486,5.7548
148.989,486.5,5.8844
149.462,487,5.9978
149.950,487.5,6.0923
150.473,488,6.1464
150.976,488.5,6.2814
151.479,489,6.3782
151.965,489.5,6.5318
152.462,490,6.6254
152.965,490.5,6.6713
153.427,491,6.7996
153.918,491.5,6.9329
154.428,492,7.0639
154.937,492.5,7.2091
155.414,493,7.3068
155.914,493.5,7.4336
156.404,494,7.5914
156.899,494.5,7.6780
157.403,495,7.8031
157.891,495.5,7.9120
158.413,496,8.0434
158.883,496.5,8.1384
159.382,497,8.2636
159.867,497.5,8.3955
160.360,498,8.5223
160.863,498.5,8.6668
161.351,499,8.7601
161.847,499.5,8.8954
162.356,500,9.0462
162.850,500.5,9.1764
163.336,501,9.3026
163.835,501.5,9.4595
164.323,502,9.5855
164.817,502.5,9.7278
165.308,503,9.8663
165.822,503.5,10.0200
166.329,504,10.1952
166.799,504.5,10.3047
167.325,505,10.4471
167.821,505.5,10.5838
168.301,506,10.7046
168.822,506.5,10.8512
169.326,507,10.9572
169.801,507.5,11.0758
170.295,508,11.2245
170.806,508.5,11.3999
171.307,509,11.5439
171.841,509.5,11.6507
172.325,510,11.7684
172.806,510.5,11.9174
173.315,511,12.0667
173.807,511.5,12.1687
174.301,512,12.2929
174.804,512.5,12.4289
175.298,513,12.5688
175.797,513.5,12.6871
176.290,514,12.8075
176.782,514.5,12.9180
177.269,515,12.9786
177.780,515.5,13.0910
178.291,516,13.2162
178.776,516.5,13.3276
179.273,517,13.4405
179.767,517.5,13.5200
180.265,518,13.5805
180.773,518.5,13.6404
181.267,519,13.7268
181.747,519.5,13.8009
182.247,520,13.8575
182.761,520.5,13.9179
183.254,521,13.9886
183.752,521.5,14.0915
184.261,522,14.1849
184.753,522.5,14.2581
185.240,523,14.3318
185.749,523.5,14.3935
186.268,524,14.4572
186.766,524.5,14.5137
187.271,525,14.5602
187.773,525.5,14.5999
188.263,526,14.6310
188.749,526.5,14.6668
189.249,527,14.7096
189.741,527.5,14.7334
190.228,528,14.7704
190.733,528.5,14.8327
191.240,529,14.9100
191.755,529.5,14.9931
192.246,530,15.0356
192.749,530.5,15.0539
193.246,531,15.0931
193.737,531.5,15.1379
194.247,532,15.1644
194.747,532.5,15.2596
195.230,533,15.3615
195.732,533.5,15.4111
196.232,534,15.4559
196.711,534.5,15.4776
197.200,535,15.5110
197.687,535.5,15.5972
198.187,536,15.6632
198.684,536.5,15.7251
199.182,537,15.7572
199.675,537.5,15.8257
200.202,538,15.9189
200.687,538.5,15.9873
201.172,539,16.0597
201.680,539.5,16.1248
202.201,540,16.2246
202.695,540.5,16.3067
203.198,541,16.3772
203.698,541.5,16.4955
204.161,542,16.5834
204.666,542.5,16.6765
205.163,543,16.7803
205.663,543.5,16.8652
206.151,544,16.9285
206.661,544.5,17.0156
207.180,545,17.0722
207.671,545.5,17.1796
208.164,546,17.2764
208.669,546.5,17.3525
209.169,547,17.4520
209.649,547.5,17.5877
210.168,548,17.7301
210.682,548.5,17.8680
211.188,549,17.9998
211.673,549.5,18.1201
212.180,550,18.2307
212.691,550.5,18.3640
213.168,551,18.5028
213.668,551.5,18.6179
214.158,552,18.7446
214.681,552.5,18.9136
215.163,553,19.0620
215.661,553.5,19.2441
216.169,554,19.3990
216.677,554.5,19.6098
217.173,555,19.8332
217.696,555.5,19.9976
218.186,556,20.1766
218.666,556.5,20.3563
219.163,557,20.5696
219.662,557.5,20.7729
220.161,558,20.9589
220.658,558.5,21.1533
221.143,559,21.3541
221.640,559.5,21.5540
222.168,560,21.8134
222.648,560.5,22.0310
223.138,561,22.2396
223.646,561.5,22.4856
224.151,562,22.7502
224.660,562.5,23.0008
225.163,563,23.2050
225.648,563.5,23.4523
226.155,564,23.7281
226.660,564.5,23.9553
227.120,565,24.2143
227.637,565.5,24.4978
228.131,566,24.7329
228.635,566.5,25.0284
229.161,567,25.3446
229.647,567.5,25.6244
230.145,568,25.9152
230.625,568.5,26.2071
231.150,569,26.4745
231.647,569.5,26.7884
232.135,570,27.1041
232.655,570.5,27.4095
233.184,571,27.6785
233.692,571.5,27.9777
234.182,572,28.2801
234.686,572.5,28.6285
235.187,573,28.9439
235.704,573.5,29.2462
236.200,574,29.5599
236.692,574.5,29.8675
237.182,575,30.2111
237.670,575.5,30.5675
238.164,576,30.9207
238.647,576.5,31.2651
239.153,577,31.6334
239.645,577.5,32.0061
240.134,578,32.3836
240.629,578.5,32.7375
241.130,579,33.0844
241.641,579.5,33.5160
242.147,580,33.9206
242.656,580.5,34.3318
243.153,581,34.7036
243.651,581.5,35.0927
244.165,582,35.4708
244.661,582.5,35.8774
245.177,583,36.3168
245.673,583.5,36.7307
246.177,584,37.1690
246.678,584.5,37.6169
247.185,585,38.0672
247.695,585.5,38.5298
248.174,586,38.9655
248.668,586.5,39.4165
249.180,587,39.8648
249.673,587.5,40.2864
250.169,588,40.7529
250.669,588.5,41.2480
251.160,589,41.7440
251.669,589.5,42.2349
252.183,590,42.7640
252.683,590.5,43.2647
253.181,591,43.7458
253.667,591.5,44.2476
254.167,592,44.7597
254.697,592.5,45.2767
255.210,593,45.8199
255.707,593.5,46.3364
256.210,594,46.8397
256.705,594.5,47.3885
257.221,595,47.9447
257.712,595.5,48.4638
258.203,596,49.0073
258.686,596.5,49.5366
259.171,597,50.0354
259.685,597.5,50.5837
260.188,598,51.1529
260.699,598.5,51.7290
261.187,599,52.2802
261.677,599.5,52.8598
262.182,600,53.4341
262.696,600.5,54.0245
263.204,601,54.6322
263.707,601.5,55.2231
264.201,602,55.7753
264.692,602.5,56.3574
265.188,603,56.9422
265.705,603.5,57.5355
266.191,604,58.1196
266.695,604.5,58.7306
267.216,605,59.3430
267.710,605.5,59.9539
268.213,606,60.5636
268.704,606.5,61.1483
269.183,607,61.7092
269.690,607.5,62.3306
270.201,608,62.9655
270.720,608.5,63.5727
271.220,609,64.1939
271.693,609.5,64.7660
272.193,610,65.3276
272.713,610.5,65.9335
273.216,611,66.5140
273.728,611.5,67.1108
274.235,612,67.6802
274.724,612.5,68.2253
275.213,613,68.7909
275.733,613.5,69.3689
276.250,614,69.9735
276.743,614.5,70.5596
277.244,615,71.1314
277.736,615.5,71.6716
278.234,616,72.2281
278.741,616.5,72.8107
279.234,617,73.3775
279.730,617.5,73.9448
280.227,618,74.4920
280.727,618.5,75.0216
281.231,619,75.5784
281.721,619.5,76.1417
282.214,620,76.6987
282.714,620.5,77.2425
283.234,621,77.8054
283.735,621.5,78.3547
284.239,622,78.8695
284.748,622.5,79.3809
285.245,623,79.8993
285.736,623.5,80.4071
286.238,624,80.9051
286.742,624.5,81.4309
287.238,625,81.9417
287.744,625.5,82.4465
288.233,626,82.9333
288.730,626.5,83.4291
289.250,627,83.9490
289.750,627.5,84.4362
290.247,628,84.9310
290.750,628.5,85.4027
291.257,629,85.8932
291.754,629.5,86.3641
292.247,630,86.8062
292.760,630.5,87.3107
293.274,631,87.8122
293.774,631.5,88.2922
294.261,632,88.7870
294.756,632.5,89.2654
295.258,633,89.7720
295.754,633.5,90.2915
296.255,634,90.7843
296.760,634.5,91.2745
297.258,635,91.7927
297.746,635.5,92.3040
298.260,636,92.8349
298.770,636.5,93.3979
299.271,637,93.9120
299.774,637.5,94.4201
300.269,638,94.9501
300.778,638.5,95.4979
301.278,639,96.0793
301.777,639.5,96.6147
302.283,640,97.1291
302.791,640.5,97.7269
303.282,641,98.3358
303.766,641.5,98.9200
304.258,642,99.4891
304.748,642.5,100.1043
305.247,643,100.7598
305.755,643.5,101.4037
306.261,644,102.0582
306.770,644.5,102.7360
307.275,645,103.4522
307.779,645.5,104.1875
308.263,646,104.8717
308.755,646.5,105.5759
309.261,647,106.3707
309.761,647.5,107.1523
310.268,648,107.9364
310.778,648.5,108.7881
311.299,649,109.6728
311.796,649.5,110.4845
312.301,650,111.3398
312.825,650.5,112.2490
313.327,651,113.1123
313.828,651.5,114.0172
314.337,652,114.9637
314.822,652.5,115.8632
315.326,653,116.8098
315.832,653.5,117.8151
316.346,654,118.7769
316.851,654.5,119.7165
317.344,655,120.6653
317.849,655.5,121.6398
318.360,656,122.6154
318.827,656.5,123.5598
319.333,657,124.5495
319.851,657.5,125.5396
320.362,658,126.5150
320.856,658.5,127.4538
321.351,659,128.3701
321.869,659.5,129.3789
322.375,660,130.2976
322.865,660.5,131.1682
323.387,661,132.0571
323.875,661.5,132.9054
324.370,662,133.6636
324.874,662.5,134.4134
325.384,663,135.1821
325.883,663.5,135.8924
326.389,664,136.5600
326.888,664.5,137.1751
327.389,665,137.6916
327.915,665.5,138.2423
328.398,666,138.6611
328.896,666.5,139.0561
329.399,667,139.3530
329.926,667.5,139.5577
330.428,668,139.6524
330.927,668.5,139.6823
331.450,669,139.6408
331.910,669.5,139.4592
332.456,670,139.1428
332.926,670.5,138.8255
333.449,671,138.3062
333.968,671.5,137.6720
334.454,672,136.8696
334.956,672.5,136.0092
335.459,673,135.0132
335.964,673.5,133.8433
336.459,674,132.5208
336.962,674.5,131.0765
337.453,675,129.5134
337.945,675.5,127.8040
338.440,676,125.9224
338.941,676.5,123.8626
339.425,677,121.7565
339.942,677.5,119.3463
340.427,678,116.9530
340.944,678.5,114.2396
341.453,679,111.4379
341.928,679.5,108.6755
342.417,680,105.7745
342.919,680.5,102.6811
343.418,681,99.4736
343.897,681.5,96.3246
344.388,682,93.0655
344.868,682.5,89.7811
345.364,683,86.3968
345.876,683.5,82.8457
346.364,684,79.4827
346.854,684.5,76.1478
347.338,685,72.8772
347.827,685.5,69.5882
348.309,686,66.4520
348.809,686.5,63.2624
349.312,687,60.1579
349.780,687.5,57.3854
350.279,688,54.4971
350.776,688.5,51.7627
351.251,689,49.3071
351.737,689.5,46.9187
352.236,690,44.5981
352.740,690.5,42.4310
353.238,691,40.4515
353.725,691.5,38.6196
354.217,692,36.8802
354.711,692.5,35.2708
355.196,693,33.8191
355.706,693.5,32.4075
356.179,694,31.2435
356.632,694.5,30.1986
357.119,695,29.1320
357.630,695.5,28.1460
358.120,696,27.2829
358.611,696.5,26.5365
359.103,697,25.8631
359.612,697.5,25.2004
360.087,698,24.6393
360.606,698.5,24.0421
361.099,699,23.5116
361.573,699.5,23.0494
362.070,700,22.5841
362.556,700.5,22.1547
363.069,701,21.7412
363.590,701.5,21.3267
364.061,702,20.9784
364.569,702.5,20.6876
365.053,703,20.3676
365.574,703.5,20.0440
366.074,704,19.7226
366.570,704.5,19.4256
367.055,705,19.0542
367.562,705.5,18.7299
368.024,706,18.4520
368.546,706.5,18.1397
369.046,707,17.8334
369.544,707.5,17.5757
370.048,708,17.3399
370.557,708.5,17.0995
371.071,709,16.8439
371.582,709.5,16.5587
372.075,710,16.3297
372.577,710.5,16.1489
373.075,711,15.8909
373.594,711.5,15.6598
374.084,712,15.4611
374.586,712.5,15.2761
375.089,713,15.0836
375.603,713.5,14.8610
376.111,714,14.6541
376.576,714.5,14.4484
377.095,715,14.2879
377.612,715.5,14.1203
378.095,716,13.9726
378.594,716.5,13.8029
379.096,717,13.6299
379.602,717.5,13.4463
380.106,718,13.2633
380.614,718.5,13.0644
381.112,719,12.8988
381.619,719.5,12.7972
382.117,720,12.6429
382.620,720.5,12.4823
383.104,721,12.3655
383.618,721.5,12.2404
384.122,722,12.1083
384.631,722.5,11.9583
385.137,723,11.8204
385.618,723.5,11.6823
386.118,724,11.5134
386.605,724.5,11.3480
387.105,725,11.1992
387.621,725.5,11.0452
388.123,726,10.9082
388.626,726.5,10.8121
389.108,727,10.7058
389.644,727.5,10.5964
390.147,728,10.4789
390.646,728.5,10.3976
391.126,729,10.3058
391.647,729.5,10.1481
392.145,730,10.0036
392.655,730.5,9.9157
393.160,731,9.8020
393.656,731.5,9.6610
394.144,732,9.5453
394.667,732.5,9.4162
395.168,733,9.2809
395.668,733.5,9.1627
396.141,734,9.0490
396.668,734.5,8.9210
397.170,735,8.7869
397.674,735.5,8.6652
398.180,736,8.5410
398.678,736.5,8.4258
399.172,737,8.2916
399.685,737.5,8.1263
400.191,738,8.0039
400.684,738.5,7.9427
401.172,739,7.8433
401.659,739.5,7.7234
402.172,740,7.6111
402.682,740.5,7.5111
403.183,741,7.4162
403.690,741.5,7.2946
404.194,742,7.1702
404.695,742.5,7.0462
405.179,743,6.9375
405.701,743.5,6.8245
406.191,744,6.7146
406.669,744.5,6.6214
407.177,745,6.5502
407.700,745.5,6.4349
408.201,746,6.2925
408.671,746.5,6.2297
409.185,747,6.1429
409.714,747.5,6.0621
410.217,748,6.0004
410.693,748.5,5.9145
411.196,749,5.8114
411.716,749.5,5.7140
412.233,750,5.5996
412.733,750.5,5.5296
413.223,751,5.4789
413.729,751.5,5.3957
414.233,752,5.3172
414.738,752.5,5.2201
415.249,753,5.1041
415.753,753.5,4.9494
416.257,754,4.8058
416.760,754.5,4.7191
417.250,755,4.6421
417.742,755.5,4.5707
418.245,756,4.5283
418.751,756.5,4.4822
419.256,757,4.4084
419.761,757.5,4.3253
420.265,758,4.2461
420.761,758.5,4.1976
421.271,759,4.1497
421.768,759.5,4.0393
422.262,760,3.9600
422.763,760.5,3.8928
423.260,761,3.8097
423.781,761.5,3.7684
424.280,762,3.7323
424.762,762.5,3.6768
425.267,763,3.6308
425.788,763.5,3.5470
426.289,764,3.4775
426.782,764.5,3.4160
427.297,765,3.3589
427.796,765.5,3.3168
428.293,766,3.2445
428.810,766.5,3.2366
429.313,767,3.1904
429.811,767.5,3.1422
430.305,768,3.0738
430.822,768.5,3.0127
431.324,769,2.9567
431.836,769.5,2.8750
432.343,770,2.8185
432.850,770.5,2.7733
433.331,771,2.7190
433.817,771.5,2.6558
434.351,772,2.5969
434.855,772.5,2.5630
435.339,773,2.5212
435.871,773.5,2.4984
436.365,774,2.4559
436.852,774.5,2.4192
437.365,775,2.3822
437.845,775.5,2.3450
438.357,776,2.2765
438.858,776.5,2.2639
439.361,777,2.2094
439.855,777.5,2.1890
440.368,778,2.2002
440.886,778.5,2.1243
441.390,779,2.0510
441.894,779.5,2.0102
442.387,780,1.9797
442.884,780.5,1.9092
443.379,781,1.8802
443.882,781.5,1.8480
444.393,782,1.8611
444.863,782.5,1.8396
445.369,783,1.7754
445.869,783.5,1.7401
446.377,784,1.6884
446.874,784.5,1.6668
447.352,785,1.6428
447.841,785.5,1.6085
448.336,786,1.6157
448.829,786.5,1.5973
449.322,787,1.5400
449.837,787.5,1.4798
450.331,788,1.4385
450.835,788.5,1.4091
451.343,789,1.3965
451.847,789.5,1.3830
452.333,790,1.3327
452.853,790.5,1.2960
453.386,791,1.2532
453.868,791.5,1.2248
454.351,792,1.2250
454.852,792.5,1.2144
455.350,793,1.2076
455.861,793.5,1.1711
456.375,794,1.1567
456.856,794.5,1.1325
457.353,795,1.1264
457.840,795.5,1.1043
458.339,796,1.0859
458.859,796.5,1.0273
459.389,797,1.0097
459.876,797.5,1.0028
460.370,798,1.0129
460.866,798.5,0.9575
461.369,799,0.8871
461.867,799.5,0.8724
462.367,800,0.8889
462.876,800.5,0.8601
463.373,801,0.8535
463.857,801.5,0.8689
464.356,802,0.8618
464.859,802.5,0.8584
465.362,803,0.8188
465.859,803.5,0.7806
466.368,804,0.7565
466.883,804.5,0.7636
467.358,805,0.7927
467.873,805.5,0.7761
468.367,806,0.7718
468.865,806.5,0.7861
469.365,807,0.7561
469.851,807.5,0.7358
470.345,808,0.7329
470.866,808.5,0.7113
471.378,809,0.6969
471.863,809.5,0.6617
472.380,810,0.6442
472.906,810.5,0.6291
473.395,811,0.6358
473.883,811.5,0.6571
474.379,812,0.6336
474.889,812.5,0.6223
475.427,813,0.5896
475.926,813.5,0.5760
476.414,814,0.5468
476.898,814.5,0.5454
477.390,815,0.5547
477.897,815.5,0.5383
478.415,816,0.5587
478.903,816.5,0.5805
479.396,817,0.5199
479.899,817.5,0.5009
480.411,818,0.4811
480.908,818.5,0.4398
481.401,819,0.4359
481.904,819.5,0.4188
482.418,820,0.4676
482.904,820.5,0.4203
483.407,821,0.4363
483.889,821.5,0.4451
484.407,822,0.4152
484.910,822.5,0.3693
485.425,823,0.3391
485.941,823.5,0.3508
486.424,824,0.3101
486.922,824.5,0.3097
487.415,825,0.2866
487.913,825.5,0.2747
488.425,826,0.2814
488.908,826.5,0.3038
489.399,827,0.3058
489.915,827.5,0.3280
490.400,828,0.3364
490.899,828.5,0.3458
491.442,829,0.3547
491.910,829.5,0.3553
492.445,830,0.3673
492.919,830.5,0.3887
493.432,831,0.3922
493.944,831.5,0.3706
494.417,832,0.3809
494.954,832.5,0.3696
495.427,833,0.3961
495.939,833.5,0.3567
496.430,834,0.3022
496.959,834.5,0.2866
497.461,835,0.2949
497.941,835.5,0.2928
498.431,836,0.2594
498.955,836.5,0.2393
499.444,837,0.2491
499.919,837.5,0.2285
500.449,838,0.2429
500.931,838.5,0.2655
501.435,839,0.2746
501.954,839.5,0.2426
502.460,840,0.2519
502.947,840.5,0.2546
503.438,841,0.2248
503.951,841.5,0.2348
504.442,842,0.2221
504.948,842.5,0.1895
505.445,843,0.1653
505.949,843.5,0.1832
506.424,844,0.1608
506.925,844.5,0.1622
507.443,845,0.1816
507.952,845.5,0.1585
508.466,846,0.1528
508.953,846.5,0.1198
509.446,847,0.0914
509.922,847.5,0.0975
510.454,848,0.1354
510.928,848.5,0.1047
511.432,849,0.1083
511.930,849.5,0.1561
512.420,850,0.1409
512.935,850.5,0.1033
513.455,851,0.1210
513.934,851.5,0.0884
514.434,852,0.0857
514.955,852.5,0.0878
515.442,853,0.0570
515.944,853.5,0.0670
516.450,854,0.0579
516.942,854.5,0.0337
517.429,855,0.0538
517.951,855.5,0.0638
518.460,856,0.0543
518.964,856.5,0.0571
519.465,857,0.0713
519.953,857.5,0.0560
520.470,858,0.0899
520.950,858.5,0.0508
521.458,859,0.0141
521.966,859.5,0.0596
522.457,860,0.0421
522.939,860.5,0.0613
523.443,861,0.0323
523.942,861.5,0.0680
524.467,862,0.0797
524.945,862.5,0.0704
525.460,863,0.0213
525.952,863.5,-0.0198
526.422,864,0.0169
526.953,864.5,-0.0174
527.488,865,-0.0354
527.957,865.5,-0.0146
528.432,866,-0.0074
528.939,866.5,-0.0618
529.452,867,-0.0532
529.919,867.5,-0.0866
530.481,868,-0.0693
530.977,868.5,-0.0578
531.472,869,-0.0468
531.949,869.5,-0.0577
532.423,870,-0.0835
532.927,870.5,-0.0631
533.452,871,-0.0751
533.956,871.5,-0.1104
534.469,872,-0.0892
534.964,872.5,-0.0671
535.437,873,-0.0819
535.943,873.5,-0.1258
536.450,874,-0.1148
536.938,874.5,-0.1190
537.439,875,-0.1040
537.930,875.5,-0.0818
538.425,876,-0.0793
538.920,876.5,-0.0616
539.442,877,-0.1023
539.940,877.5,-0.1669
540.447,878,-0.1408
540.919,878.5,-0.1416
541.443,879,-0.1220
541.952,879.5,-0.0794
542.424,880,-0.1471
542.939,880.5,-0.1598
543.446,881,-0.1400
543.981,881.5,-0.1509
544.437,882,-0.1555
544.900,882.5,-0.1375
545.420,883,-0.1638
545.939,883.5,-0.1344
546.460,884,-0.1652
546.938,884.5,-0.1138
547.456,885,-0.0967
547.947,885.5,-0.1313
548.429,886,-0.1138
548.923,886.5,-0.1252
549.447,887,-0.1349
549.963,887.5,-0.1355
550.458,888,-0.1407
550.926,888.5,-0.1647
551.423,889,-0.1474
551.915,889.5,-0.1632
552.443,890,-0.1635
552.935,890.5,-0.1392
553.418,891,-0.1462
553.967,891.5,-0.1500
554.446,892,-0.1614
554.928,892.5,-0.1556
555.401,893,-0.1669
555.950,893.5,-0.1230
556.439,894,-0.1412
556.951,894.5,-0.1450
557.416,895,-0.1364
557.916,895.5,-0.1460
558.413,896,-0.1728
558.923,896.5,-0.1760
559.424,897,-0.2330
559.912,897.5,-0.1507
560.416,898,-0.1613
560.911,898.5,-0.1515
561.404,899,-0.1671
561.912,899.5,-0.1458
562.416,900,-0.1632
562.886,900.5,-0.1814
563.397,901,-0.1946
563.927,901.5,-0.1430
564.410,902,-0.1514
564.925,902.5,-0.1864
565.412,903,-0.2293
565.915,903.5,-0.2586
566.403,904,-0.2368
566.896,904.5,-0.2634
567.386,905,-0.2539
567.888,905.5,-0.2715
568.366,906,-0.2360
568.867,906.5,-0.2056
569.373,907,-0.1730
569.867,907.5,-0.1626
570.368,908,-0.1508
570.858,908.5,-0.1363
571.381,909,-0.1243
571.877,909.5,-0.1049
572.368,910,-0.1181
572.860,910.5,-0.1071
573.367,911,-0.1278
573.884,911.5,-0.1474
574.410,912,-0.1574
574.898,912.5,-0.1879
575.402,913,-0.2311
575.892,913.5,-0.2755
576.395,914,-0.2888
576.872,914.5,-0.2454
577.396,915,-0.2448
577.868,915.5,-0.2386
578.386,916,-0.2787
578.862,916.5,-0.2679
579.359,917,-0.2384
579.876,917.5,-0.1955
580.353,918,-0.1749
580.846,918.5,-0.1909
581.347,919,-0.1846
581.853,919.5,-0.1946
582.354,920,-0.1572
582.829,920.5,-0.1292
583.319,921,-0.1474
583.829,921.5,-0.1596
584.324,922,-0.1068
584.840,922.5,-0.1223
585.327,923,-0.1136
585.852,923.5,-0.0993
586.368,924,-0.1074
586.867,924.5,-0.1552
587.340,925,-0.1730
587.832,925.5,-0.1833
588.334,926,-0.2177
588.828,926.5,-0.2058
589.326,927,-0.1914
589.831,927.5,-0.1834
590.305,928,-0.1595
590.803,928.5,-0.1560
591.298,929,-0.1503
591.794,929.5,-0.1578
592.314,930,-0.1244
592.811,930.5,-0.1163
593.299,931,-0.1353
593.785,931.5,-0.1163
594.269,932,-0.1115
594.778,932.5,-0.1167
595.289,933,-0.1198
595.808,933.5,-0.1384
596.304,934,-0.1458
596.787,934.5,-0.1289
597.287,935,-0.1077
597.793,935.5,-0.1235
598.298,936,-0.1460
598.784,936.5,-0.1524
599.274,937,-0.1517
599.788,937.5,-0.1519
600.288,938,-0.1644
600.771,938.5,-0.1428
601.272,939,-0.1566
601.778,939.5,-0.1697
602.262,940,-0.1706
602.742,940.5,-0.1802
603.253,941,-0.1717
603.762,941.5,-0.1706
604.242,942,-0.1794
604.736,942.5,-0.1855
605.234,943,-0.1812
605.734,943.5,-0.1867
606.238,944,-0.1926
606.727,944.5,-0.1678
607.226,945,-0.1635
607.738,945.5,-0.1929
608.236,946,-0.1920
608.727,946.5,-0.2009
609.236,947,-0.1992
609.742,947.5,-0.2064
610.232,948,-0.2452
610.717,948.5,-0.2573
611.219,949,-0.2391
611.730,949.5,-0.2023
612.226,950,-0.2108
612.719,950.5,-0.2296
613.212,951,-0.2302
613.708,951.5,-0.2366
614.221,952,-0.2114
614.717,952.5,-0.2023
615.199,953,-0.2239
615.705,953.5,-0.2245
616.207,954,-0.2066
616.710,954.5,-0.2125
617.209,955,-0.2382
617.703,955.5,-0.2273
618.195,956,-0.2202
618.691,956.5,-0.2294
619.179,957,-0.2231
619.666,957.5,-0.2523
620.174,958,-0.2430
620.693,958.5,-0.2257
621.169,959,-0.2262
621.686,959.5,-0.2221
622.168,960,-0.2130
622.656,960.5,-0.2203
623.162,961,-0.1955
623.673,961.5,-0.1707
624.163,962,-0.1903
624.645,962.5,-0.1964
625.141,963,-0.1644
625.651,963.5,-0.1728
626.126,964,-0.1960
626.624,964.5,-0.1885
627.135,965,-0.1873
627.624,965.5,-0.2143
628.126,966,-0.2199
628.599,966.5,-0.2357
629.076,967,-0.2311
629.626,967.5,-0.2295
630.099,968,-0.2526
630.605,968.5,-0.2228
631.103,969,-0.2117
631.621,969.5,-0.2073
632.098,970,-0.2115
632.576,970.5,-0.1960
633.094,971,-0.1401
633.598,971.5,-0.1066
634.111,972,-0.1382
634.591,972.5,-0.0981
635.071,973,-0.0977
635.582,973.5,-0.1275
636.088,974,-0.1400
636.584,974.5,-0.1638
637.060,975,-0.1660
637.532,975.5,-0.1497
638.004,976,-0.1067
638.579,976.5,-0.1319
639.078,977,-0.0977
639.583,977.5,-0.0792
640.074,978,-0.0653
640.564,978.5,-0.0541
641.040,979,-0.0216
641.557,979.5,0.0044
642.060,980,-0.0275
642.569,980.5,-0.0190
643.054,981,-0.0471
643.522,981.5,-0.0774
644.041,982,-0.0057
644.543,982.5,-0.0157
644.968,983,-0.0059
645.539,983.5,-0.0125
646.016,984,-0.0021
646.520,984.5,-0.0019
647.028,985,-0.0388
647.527,985.5,0.0467
647.995,986,0.0217
648.497,986.5,0.0345
649.005,987,0.0226
649.540,987.5,0.0144
650.016,988,-0.0013
650.526,988.5,-0.0347
651.007,989,-0.0278
651.493,989.5,-0.0305
652.000,990,-0.0134
652.489,990.5,0.0396
652.966,991,0.0028
653.496,991.5,-0.0515
653.983,992,-0.0362
654.450,992.5,-0.0705
654.997,993,-0.0953
655.482,993.5,-0.0749
655.956,994,-0.0620
656.457,994.5,-0.0041
656.963,995,0.0292
657.431,995.5,0.0594
657.944,996,0.0755
658.455,996.5,0.0416
658.962,997,0.0097
659.441,997.5,0.0173
659.915,998,0.0139
660.406,998.5,-0.0193
660.907,999,-0.0421
661.406,999.5,-0.0820
661.888,1000,-0.0435
662.443,1000.5,-0.0460
662.915,1001,-0.0187
663.414,1001.5,0.0439
663.906,1002,0.0883
664.398,1002.5,0.1120
664.930,1003,0.1084
665.404,1003.5,0.0898
665.889,1004,0.0936
666.400,1004.5,0.0633
666.870,1005,0.0229
667.360,1005.5,-0.0481
667.883,1006,-0.0534
668.376,1006.5,-0.0478
668.863,1007,-0.0699
669.349,1007.5,-0.0460
669.842,1008,-0.0270
670.330,1008.5,0.0165
670.835,1009,0.0325
671.332,1009.5,0.0188
671.829,1010,-0.0004
672.354,1010.5,0.0167
672.838,1011,0.0182
673.304,1011.5,0.0394
673.812,1012,0.0189
674.348,1012.5,0.0122
674.845,1013,0.0406
675.320,1013.5,0.0340
675.815,1014,0.0281
676.318,1014.5,0.0405
676.806,1015,0.0344
677.305,1015.5,0.0313
677.801,1016,0.0061
678.294,1016.5,0.0348
678.775,1017,0.0951
679.277,1017.5,0.0887
679.782,1018,0.0647
680.275,1018.5,0.0686
680.784,1019,0.0442
681.277,1019.5,0.0213
681.757,1020,0.0332
682.262,1020.5,0.0227
682.749,1021,0.0275
683.230,1021.5,0.0508
683.741,1022,0.0571
684.246,1022.5,0.0992
684.738,1023,0.1317
685.228,1023.5,0.1320
685.726,1024,0.1051
686.224,1024.5,0.0754
686.715,1025,0.0856
687.210,1025.5,0.0614
687.728,1026,0.0251
688.234,1026.5,0.0431
688.730,1027,0.0652
689.224,1027.5,0.0749
689.714,1028,0.0658
690.212,1028.5,0.0478
690.704,1029,0.0690
691.216,1029.5,0.0977
691.711,1030,0.0756
692.184,1030.5,0.0544
692.673,1031,0.0475
693.155,1031.5,0.0908
693.691,1032,0.0965
694.191,1032.5,0.0739
694.670,1033,0.0501
695.177,1033.5,0.0798
695.647,1034,0.0955
696.158,1034.5,0.0985
696.690,1035,0.1143
697.190,1035.5,0.1376
697.635,1036,0.1459
698.165,1036.5,0.1573
698.646,1037,0.1600
699.122,1037.5,0.1267
699.643,1038,0.1558
700.172,1038.5,0.1752
700.654,1039,0.1468
701.121,1039.5,0.1571
701.616,1040,0.2013
702.150,1040.5,0.1494
702.616,1041,0.1467
703.124,1041.5,0.1649
703.628,1042,0.1593
704.157,1042.5,0.1584
704.602,1043,0.1564
705.075,1043.5,0.1253
705.563,1044,0.1552
706.090,1044.5,0.1370
706.590,1045,0.1383
707.073,1045.5,0.1147
707.551,1046,0.1308
708.073,1046.5,0.1608
708.563,1047,0.1497
709.049,1047.5,0.1501
709.563,1048,0.1766
710.097,1048.5,0.1453
710.586,1049,0.1505
711.086,1049.5,0.1701
711.582,1050,0.2025
712.072,1050.5,0.1615
712.543,1051,0.1554
713.074,1051.5,0.1780
713.563,1052,0.1954
714.058,1052.5,0.1888
714.556,1053,0.1512
715.049,1053.5,0.1796
715.559,1054,0.1829
716.043,1054.5,0.1910
716.532,1055,0.1834
717.051,1055.5,0.1481
717.565,1056,0.1763
718.067,1056.5,0.1623
718.577,1057,0.1956
719.039,1057.5,0.2096
719.520,1058,0.1504
720.051,1058.5,0.2076
720.521,1059,0.1416
721.048,1059.5,0.1406
721.539,1060,0.1759
721.989,1060.5,0.1064
722.494,1061,0.1389
723.022,1061.5,0.1433
723.526,1062,0.1760
724.020,1062.5,0.1697
724.501,1063,0.1857
724.985,1063.5,0.1767
725.517,1064,0.1922
726.004,1064.5,0.2016
726.532,1065,0.2073
726.948,1065.5,0.1733
727.435,1066,0.1592
727.956,1066.5,0.1455
728.474,1067,0.1353
729.005,1067.5,0.1745
729.497,1068,0.1978
729.958,1068.5,0.2198
730.467,1069,0.1999
731.010,1069.5,0.2214
731.471,1070,0.2038
731.985,1070.5,0.1858
732.464,1071,0.1628
732.956,1071.5,0.1252
733.450,1072,0.1457
733.977,1072.5,0.1641
734.465,1073,0.1823
734.954,1073.5,0.1888
735.462,1074,0.1696
735.965,1074.5,0.1602
736.476,1075,0.1526
736.959,1075.5,0.1860
737.476,1076,0.1962
737.948,1076.5,0.1624
738.484,1077,0.1424
738.961,1077.5,0.1104
739.458,1078,0.1193
739.922,1078.5,0.0976
740.468,1079,0.1349
740.979,1079.5,0.1374
741.446,1080,0.1105
741.946,1080.5,0.1195
742.444,1081,0.1536
742.935,1081.5,0.1252
743.419,1082,0.0934
743.909,1082.5,0.1117
744.412,1083,0.1192
744.921,1083.5,0.0991
745.396,1084,0.1063
745.870,1084.5,0.0817
746.400,1085,0.1100
746.908,1085.5,0.0858
747.426,1086,0.1137
747.901,1086.5,0.1214
748.396,1087,0.1422
748.870,1087.5,0.1445
749.359,1088,0.1282
749.864,1088.5,0.1285
750.392,1089,0.1391
750.889,1089.5,0.1164
751.356,1090,0.1049
751.835,1090.5,0.1044
752.337,1091,0.1223
752.871,1091.5,0.1147
753.388,1092,0.0958
753.836,1092.5,0.1223
754.335,1093,0.1227
754.847,1093.5,0.1134
755.372,1094,0.1292
755.849,1094.5,0.1182
756.379,1095,0.0795
756.839,1095.5,0.0838
757.336,1096,0.0628
757.812,1096.5,0.0555
758.352,1097,0.0750
758.882,1097.5,0.0585
759.376,1098,0.0602
759.846,1098.5,0.1046
760.360,1099,0.0797
760.850,1099.5,0.0753
761.343,1100,0.0956
761.863,1100.5,0.1160
762.347,1101,0.0801
762.840,1101.5,0.0714
763.337,1102,0.0373
763.851,1102.5,0.0346
764.368,1103,0.0470
764.884,1103.5,0.0895
765.361,1104,0.0750
765.910,1104.5,0.0667
766.353,1105,0.0766
766.873,1105.5,0.0816
767.350,1106,0.0736
767.857,1106.5,0.0627
768.337,1107,0.0631
768.860,1107.5,0.0478
769.368,1108,0.0412
769.830,1108.5,0.0208
770.350,1109,0.0197
770.839,1109.5,-0.0121
771.312,1110,-0.0423
771.881,1110.5,0.0132
772.347,1111,0.0173
772.840,1111.5,0.0407
773.311,1112,0.0439
773.783,1112.5,0.0462
774.287,1113,0.0466
774.823,1113.5,0.0163
775.313,1114,0.0112
775.821,1114.5,-0.0011
776.303,1115,-0.0029
776.812,1115.5,-0.0049
777.313,1116,0.0228
777.799,1116.5,0.0364
778.302,1117,0.0326
778.813,1117.5,0.0274
779.327,1118,0.0071
779.817,1118.5,-0.0045
780.311,1119,-0.0173
780.819,1119.5,0.0058
781.334,1120,0.0339
781.823,1120.5,0.0233
782.287,1121,0.0088
782.785,1121.5,0.0004
783.310,1122,0.0046
783.794,1122.5,-0.0214
784.266,1123,-0.0562
784.761,1123.5,-0.0523
785.287,1124,-0.0245
785.835,1124.5,-0.0361
786.326,1125,-0.0565
786.802,1125.5,-0.0538
787.273,1126,-0.0181
787.766,1126.5,-0.0225
788.262,1127,-0.0163
788.765,1127.5,0.0115
789.270,1128,-0.0209
789.773,1128.5,-0.0259
790.288,1129,0.0071
790.762,1129.5,0.0124
791.248,1130,0.0324
791.749,1130.5,0.0371
792.258,1131,0.0221
792.745,1131.5,0.0117
793.215,1132,-0.0021
793.725,1132.5,0.0027
794.227,1133,-0.0087
794.716,1133.5,-0.0237
795.226,1134,-0.0314
795.754,1134.5,-0.0418
796.239,1135,-0.0199
796.722,1135.5,0.0005
797.237,1136,-0.0127
797.724,1136.5,-0.0167
798.181,1137,-0.0125
798.669,1137.5,-0.0032
799.196,1138,-0.0205
799.714,1138.5,-0.0546
800.232,1139,-0.0557
800.745,1139.5,-0.0574
801.196,1140,-0.0253
801.668,1140.5,-0.0131
802.204,1141,0.0113
802.687,1141.5,0.0610
803.186,1142,0.0369
803.682,1142.5,0.0325
804.131,1143,0.0209
804.658,1143.5,0.0229
805.187,1144,-0.0118
805.701,1144.5,-0.0081
806.192,1145,0.0262
806.674,1145.5,0.0334
807.153,1146,0.0157
807.654,1146.5,-0.0345
808.173,1147,-0.0299
808.664,1147.5,-0.0332
809.142,1148,-0.0351
809.648,1148.5,-0.0284
810.154,1149,-0.0579
810.639,1149.5,-0.0559
811.167,1150,-0.0562
811.694,1150.5,-0.0542
812.132,1151,-0.0186
812.589,1151.5,-0.0369
813.125,1152,-0.0455
813.591,1152.5,-0.0663
814.119,1153,-0.0215
814.601,1153.5,-0.0470
815.123,1154,-0.0603
815.595,1154.5,-0.0222
816.110,1155,-0.0611
816.601,1155.5,-0.0504
817.135,1156,-0.0341
817.609,1156.5,-0.0287
818.096,1157,-0.0035
818.560,1157.5,-0.0142
819.066,1158,0.0432
819.612,1158.5,0.0123
820.137,1159,0.0159
820.607,1159.5,-0.0003
821.086,1160,0.0153
821.567,1160.5,0.0026
822.047,1161,-0.0211
822.562,1161.5,0.0383
823.046,1162,0.0781
823.566,1162.5,0.1035
824.037,1163,0.0855
824.534,1163.5,0.0783
825.089,1164,0.0957
825.570,1164.5,0.0542
826.042,1165,0.0580
826.529,1165.5,0.0217
827.011,1166,-0.0029
827.530,1166.5,0.0278
828.005,1167,0.0054
828.564,1167.5,0.0000
828.978,1168,-0.0193
829.557,1168.5,-0.0308
830.007,1169,-0.0221
830.495,1169.5,-0.0562
830.944,1170,-0.0464
831.428,1170.5,-0.0622
831.964,1171,-0.0245
832.504,1171.5,-0.0006
832.996,1172,-0.0094
833.503,1172.5,-0.0265
833.962,1173,-0.0299
834.411,1173.5,-0.0283
834.864,1174,-0.0298
835.392,1174.5,-0.0324
835.896,1175,-0.0320
836.420,1175.5,-0.0403
836.896,1176,-0.0299
837.405,1176.5,-0.0179
837.890,1177,-0.0141
838.381,1177.5,-0.0189
838.893,1178,-0.0451
839.412,1178.5,-0.0600
839.894,1179,-0.0695
840.360,1179.5,-0.0340
840.839,1180,-0.0111
841.390,1180.5,0.0167
841.906,1181,0.0120
842.381,1181.5,0.0020
842.871,1182,-0.0174
843.366,1182.5,-0.0240
843.858,1183,-0.0542
844.329,1183.5,-0.0153
844.836,1184,-0.0085
845.349,1184.5,0.0001
845.801,1185,-0.0122
846.307,1185.5,-0.0343
846.830,1186,-0.0325
847.323,1186.5,-0.0326
847.806,1187,-0.0205
848.292,1187.5,0.0107
848.781,1188,0.0255
849.281,1188.5,-0.0068
849.781,1189,-0.0509
850.274,1189.5,-0.0574
850.770,1190,-0.0609
851.262,1190.5,-0.0800
851.745,1191,-0.1095
852.218,1191.5,-0.1089
852.699,1192,-0.0765
853.204,1192.5,-0.0852
853.710,1193,-0.0956
854.206,1193.5,-0.0507
854.699,1194,-0.0314
855.203,1194.5,-0.0667
855.702,1195,-0.0491
856.193,1195.5,-0.0283
856.666,1196,-0.0296
857.151,1196.5,-0.0206
857.645,1197,-0.0427
858.136,1197.5,-0.0249
858.612,1198,0.0340
859.125,1198.5,-0.0214
859.624,1199,-0.0233
860.115,1199.5,-0.0285
860.590,1200,-0.0419
861.107,1200.5,0.0170
861.573,1201,-0.0038
862.094,1201.5,-0.0233
862.564,1202,-0.0260
863.077,1202.5,-0.0039
863.530,1203,-0.0164
864.001,1203.5,-0.0181
864.480,1204,-0.0332
865.039,1204.5,-0.0331
865.561,1205,-0.0245
866.007,1205.5,-0.0477
866.483,1206,-0.0418
867.039,1206.5,-0.0499
867.534,1207,-0.0484
867.958,1207.5,-0.0309
868.425,1208,-0.0443
868.904,1208.5,-0.0557
869.467,1209,-0.0759
869.931,1209.5,-0.1139
870.479,1210,-0.0540
870.942,1210.5,-0.0693
871.405,1211,-0.0633
871.943,1211.5,-0.0837
872.434,1212,-0.0300
872.950,1212.5,0.0073
873.453,1213,0.0115
873.927,1213.5,0.0255
874.415,1214,0.0122
874.915,1214.5,0.0588
875.406,1215,0.0285
875.886,1215.5,0.0178
876.371,1216,0.0272
876.866,1216.5,0.0570
877.358,1217,0.0524
877.861,1217.5,-0.0030
878.368,1218,0.0117
878.854,1218.5,0.0261
879.358,1219,0.0421
879.871,1219.5,-0.0039
880.346,1220,-0.0231
880.867,1220.5,-0.0458
881.388,1221,-0.0685
881.888,1221.5,-0.0626
882.426,1222,-0.0846
882.930,1222.5,-0.0579
883.428,1223,-0.0279
883.958,1223.5,-0.0192
884.470,1224,-0.0338
884.988,1224.5,-0.0260
885.489,1225,0.0065
886.070,1225.5,-0.0157
886.566,1226,-0.0297
887.066,1226.5,-0.0220
887.655,1227,-0.0151
888.200,1227.5,0.0012
888.710,1228,-0.0249
889.262,1228.5,-0.0020
889.823,1229,0.0029
890.346,1229.5,0.0182
890.936,1230,0.0041
891.458,1230.5,-0.0005
892.087,1231,0.0182
892.600,1231.5,-0.0035
893.172,1232,-0.0253
893.720,1232.5,-0.0242
894.283,1233,-0.0444
894.896,1233.5,-0.0889
895.493,1234,-0.1524
896.018,1234.5,-0.0777
896.643,1235,-0.0712
897.244,1235.5,-0.0983
897.882,1236,-0.0716
898.474,1236.5,-0.0550
899.076,1237,-0.0582
899.712,1237.5,-0.0572
900.386,1238,-0.0620
900.996,1238.5,-0.0207
901.536,1239,-0.0704
902.246,1239.5,-0.0812
902.903,1240,-0.1080
903.521,1240.5,-0.0874
904.190,1241,-0.0653
904.904,1241.5,-0.0490
905.609,1242,-0.0872
906.296,1242.5,-0.0830
907.052,1243,-0.0701
907.662,1243.5,-0.0615
908.371,1244,-0.0646
909.133,1244.5,-0.0610
909.838,1245,-0.0663
910.591,1245.5,-0.0765
