Time (s),Temperature (K),Weight (mg)
0,383.15,4.877
1,383.15,4.877
2,383.15,4.877
3,383.15,4.877
4,383.15,4.877
5,383.15,4.877
6,383.15,4.877
7,383.15,4.877
8,383.15,4.877
9,383.15,4.877
10,383.18,4.877
11,383.20,4.877
12,383.24,4.877
13,383.30,4.877
14,383.36,4.877
15,383.42,4.877
16,383.49,4.877
17,383.56,4.877
18,383.62,4.877
19,383.69,4.877
20,383.76,4.877
21,383.83,4.877
22,383.90,4.877
23,383.97,4.877
24,384.04,4.877
25,384.11,4.877
26,384.18,4.877
27,384.25,4.877
28,384.32,4.877
29,384.39,4.877
30,384.46,4.877
31,384.54,4.877
32,384.62,4.877
33,384.68,4.878
34,384.75,4.878
35,384.83,4.878
36,384.90,4.878
37,384.98,4.878
38,385.06,4.878
39,385.12,4.878
40,385.20,4.878
41,385.28,4.878
42,385.35,4.878
43,385.43,4.878
44,385.51,4.878
45,385.59,4.878
46,385.66,4.878
47,385.74,4.878
48,385.82,4.878
49,385.89,4.878
50,385.97,4.878
51,386.05,4.878
52,386.12,4.878
53,386.20,4.878
54,386.29,4.878
55,386.37,4.878
56,386.45,4.878
57,386.53,4.878
58,386.61,4.878
59,386.68,4.878
60,386.76,4.878
61,386.84,4.878
62,386.92,4.878
63,387.01,4.878
64,387.08,4.878
65,387.16,4.878
66,387.24,4.878
67,387.32,4.878
68,387.41,4.878
69,387.49,4.878
70,387.57,4.878
71,387.65,4.878
72,387.73,4.878
73,387.81,4.878
74,387.89,4.878
75,387.97,4.878
76,388.05,4.877
77,388.14,4.877
78,388.22,4.877
79,388.30,4.877
80,388.38,4.877
81,388.46,4.877
82,388.54,4.877
83,388.63,4.877
84,388.71,4.877
85,388.80,4.877
86,388.88,4.877
87,388.96,4.877
88,389.03,4.877
89,389.11,4.877
90,389.19,4.877
91,389.28,4.877
92,389.37,4.877
93,389.45,4.877
94,389.54,4.877
95,389.62,4.877
96,389.70,4.877
97,389.79,4.877
98,389.86,4.877
99,389.95,4.877
100,390.02,4.877
101,390.11,4.877
102,390.19,4.877
103,390.28,4.877
104,390.36,4.877
105,390.44,4.877
106,390.53,4.877
107,390.61,4.877
108,390.69,4.877
109,390.78,4.877
110,390.86,4.877
111,390.94,4.877
112,391.02,4.877
113,391.10,4.877
114,391.19,4.877
115,391.27,4.877
116,391.35,4.877
117,391.44,4.877
118,391.52,4.877
119,391.60,4.877
120,391.69,4.877
121,391.77,4.877
122,391.86,4.877
123,391.94,4.877
124,392.02,4.877
125,392.10,4.877
126,392.18,4.877
127,392.26,4.877
128,392.35,4.877
129,392.43,4.877
130,392.52,4.877
131,392.60,4.877
132,392.70,4.877
133,392.78,4.877
134,392.86,4.877
135,392.94,4.877
136,393.02,4.877
137,393.09,4.877
138,393.18,4.877
139,393.27,4.877
140,393.35,4.877
141,393.44,4.877
142,393.52,4.877
143,393.61,4.877
144,393.69,4.877
145,393.78,4.877
146,393.85,4.877
147,393.93,4.877
148,394.01,4.877
149,394.10,4.877
150,394.19,4.877
151,394.28,4.877
152,394.36,4.877
153,394.44,4.877
154,394.52,4.877
155,394.60,4.877
156,394.69,4.877
157,394.77,4.877
158,394.86,4.877
159,394.94,4.877
160,395.02,4.877
161,395.11,4.877
162,395.19,4.877
163,395.27,4.877
164,395.35,4.877
165,395.44,4.877
166,395.53,4.877
167,395.61,4.877
168,395.69,4.877
169,395.77,4.877
170,395.86,4.877
171,395.94,4.877
172,396.03,4.877
173,396.11,4.877
174,396.19,4.877
175,396.28,4.877
176,396.36,4.877
177,396.44,4.877
178,396.52,4.877
179,396.61,4.877
180,396.70,4.877
181,396.78,4.877
182,396.86,4.877
183,396.94,4.877
184,397.02,4.877
185,397.11,4.877
186,397.20,4.877
187,397.28,4.877
188,397.37,4.877
189,397.45,4.876
190,397.53,4.876
191,397.61,4.876
192,397.69,4.876
193,397.77,4.876
194,397.86,4.876
195,397.95,4.876
196,398.03,4.876
197,398.11,4.876
198,398.19,4.876
199,398.28,4.876
200,398.37,4.876
201,398.45,4.876
202,398.54,4.876
203,398.61,4.876
204,398.70,4.876
205,398.78,4.876
206,398.86,4.876
207,398.94,4.876
208,399.03,4.876
209,399.11,4.876
210,399.20,4.876
211,399.28,4.876
212,399.36,4.876
213,399.45,4.876
214,399.54,4.876
215,399.62,4.876
216,399.70,4.876
217,399.79,4.876
218,399.87,4.876
219,399.95,4.876
220,400.03,4.876
221,400.11,4.876
222,400.20,4.876
223,400.29,4.876
224,400.38,4.876
225,400.46,4.876
226,400.54,4.876
227,400.62,4.876
228,400.70,4.876
229,400.78,4.876
230,400.87,4.876
231,400.96,4.876
232,401.05,4.876
233,401.13,4.876
234,401.21,4.876
235,401.29,4.876
236,401.37,4.876
237,401.45,4.876
238,401.54,4.876
239,401.63,4.876
240,401.72,4.876
241,401.80,4.876
242,401.88,4.876
243,401.96,4.876
244,402.04,4.876
245,402.12,4.876
246,402.21,4.876
247,402.29,4.875
248,402.37,4.875
249,402.46,4.875
250,402.54,4.875
251,402.62,4.875
252,402.71,4.875
253,402.79,4.875
254,402.88,4.875
255,402.96,4.875
256,403.05,4.875
257,403.13,4.875
258,403.21,4.875
259,403.30,4.875
260,403.38,4.875
261,403.46,4.875
262,403.54,4.875
263,403.63,4.875
264,403.72,4.875
265,403.80,4.875
266,403.89,4.875
267,403.97,4.875
268,404.05,4.875
269,404.13,4.875
270,404.21,4.875
271,404.29,4.875
272,404.38,4.875
273,404.47,4.875
274,404.56,4.875
275,404.64,4.875
276,404.72,4.875
277,404.79,4.875
278,404.88,4.875
279,404.96,4.875
280,405.05,4.875
281,405.14,4.875
282,405.22,4.875
283,405.30,4.875
284,405.38,4.875
285,405.46,4.875
286,405.55,4.875
287,405.63,4.875
288,405.72,4.875
289,405.81,4.875
290,405.89,4.875
291,405.97,4.875
292,406.05,4.875
293,406.13,4.875
294,406.22,4.875
295,406.31,4.875
296,406.39,4.875
297,406.48,4.875
298,406.56,4.875
299,406.64,4.875
300,406.72,4.875
301,406.81,4.875
302,406.89,4.875
303,406.97,4.875
304,407.06,4.875
305,407.14,4.875
306,407.23,4.875
307,407.31,4.875
308,407.39,4.875
309,407.48,4.874
310,407.56,4.874
311,407.64,4.874
312,407.72,4.874
313,407.81,4.874
314,407.89,4.874
315,407.98,4.874
316,408.06,4.874
317,408.15,4.874
318,408.23,4.874
319,408.31,4.874
320,408.40,4.874
321,408.48,4.874
322,408.56,4.874
323,408.65,4.874
324,408.73,4.874
325,408.81,4.874
326,408.89,4.874
327,408.98,4.874
328,409.06,4.874
329,409.15,4.874
330,409.23,4.874
331,409.32,4.874
332,409.39,4.874
333,409.48,4.874
334,409.56,4.874
335,409.64,4.874
336,409.73,4.874
337,409.82,4.874
338,409.90,4.874
339,409.98,4.874
340,410.07,4.874
341,410.15,4.874
342,410.23,4.874
343,410.32,4.874
344,410.40,4.874
345,410.49,4.874
346,410.57,4.874
347,410.65,4.874
348,410.73,4.874
349,410.82,4.874
350,410.91,4.874
351,410.99,4.874
352,411.07,4.874
353,411.15,4.874
354,411.23,4.874
355,411.32,4.873
356,411.40,4.873
357,411.49,4.873
358,411.57,4.873
359,411.66,4.873
360,411.74,4.873
361,411.83,4.873
362,411.91,4.873
363,411.99,4.873
364,412.07,4.873
365,412.16,4.873
366,412.24,4.873
367,412.32,4.873
368,412.40,4.873
369,412.49,4.873
370,412.57,4.873
371,412.66,4.873
372,412.74,4.873
373,412.83,4.873
374,412.91,4.873
375,413.00,4.873
376,413.08,4.873
377,413.17,4.873
378,413.25,4.873
379,413.33,4.873
380,413.41,4.873
381,413.49,4.873
382,413.57,4.873
383,413.66,4.873
384,413.75,4.873
385,413.83,4.873
386,413.91,4.873
387,413.99,4.873
388,414.08,4.873
389,414.16,4.873
390,414.25,4.873
391,414.33,4.873
392,414.42,4.873
393,414.49,4.873
394,414.58,4.873
395,414.66,4.872
396,414.75,4.872
397,414.83,4.872
398,414.91,4.872
399,415.00,4.872
400,415.09,4.872
401,415.17,4.872
402,415.26,4.872
403,415.34,4.872
404,415.42,4.872
405,415.50,4.872
406,415.58,4.872
407,415.66,4.872
408,415.75,4.872
409,415.84,4.872
410,415.92,4.872
411,416.01,4.872
412,416.09,4.872
413,416.17,4.872
414,416.25,4.872
415,416.34,4.872
416,416.42,4.872
417,416.50,4.872
418,416.59,4.872
419,416.67,4.872
420,416.75,4.872
421,416.84,4.872
422,416.92,4.872
423,417.01,4.872
424,417.09,4.872
425,417.17,4.872
426,417.26,4.871
427,417.34,4.871
428,417.43,4.871
429,417.51,4.871
430,417.59,4.871
431,417.67,4.871
432,417.75,4.871
433,417.84,4.871
434,417.93,4.871
435,418.01,4.871
436,418.10,4.871
437,418.17,4.871
438,418.26,4.871
439,418.34,4.871
440,418.43,4.871
441,418.51,4.871
442,418.60,4.871
443,418.68,4.871
444,418.76,4.871
445,418.85,4.871
446,418.93,4.871
447,419.01,4.871
448,419.09,4.871
449,419.18,4.871
450,419.26,4.871
451,419.35,4.871
452,419.43,4.871
453,419.52,4.871
454,419.60,4.871
455,419.68,4.871
456,419.76,4.871
457,419.85,4.871
458,419.93,4.871
459,420.02,4.870
460,420.10,4.870
461,420.18,4.870
462,420.27,4.870
463,420.35,4.870
464,420.43,4.870
465,420.52,4.870
466,420.60,4.870
467,420.68,4.870
468,420.77,4.870
469,420.85,4.870
470,420.94,4.870
471,421.02,4.870
472,421.11,4.870
473,421.19,4.870
474,421.27,4.870
475,421.36,4.870
476,421.43,4.870
477,421.52,4.870
478,421.60,4.870
479,421.69,4.870
480,421.77,4.870
481,421.86,4.870
482,421.94,4.870
483,422.02,4.870
484,422.10,4.870
485,422.19,4.870
486,422.28,4.869
487,422.36,4.869
488,422.45,4.869
489,422.53,4.869
490,422.61,4.869
491,422.69,4.869
492,422.77,4.869
493,422.85,4.869
494,422.94,4.869
495,423.03,4.869
496,423.11,4.869
497,423.20,4.869
498,423.28,4.869
499,423.36,4.869
500,423.45,4.869
501,423.53,4.869
502,423.61,4.869
503,423.69,4.869
504,423.78,4.869
505,423.86,4.869
506,423.95,4.869
507,424.03,4.869
508,424.11,4.869
509,424.20,4.869
510,424.28,4.869
511,424.37,4.869
512,424.45,4.869
513,424.53,4.869
514,424.62,4.869
515,424.69,4.868
516,424.78,4.868
517,424.87,4.868
518,424.95,4.868
519,425.03,4.868
520,425.12,4.868
521,425.20,4.868
522,425.28,4.868
523,425.37,4.868
524,425.45,4.868
525,425.54,4.868
526,425.62,4.868
527,425.70,4.868
528,425.78,4.868
529,425.87,4.868
530,425.96,4.868
531,426.04,4.868
532,426.12,4.868
533,426.20,4.868
534,426.29,4.868
535,426.37,4.868
536,426.46,4.868
537,426.54,4.868
538,426.63,4.867
539,426.71,4.867
540,426.79,4.867
541,426.87,4.867
542,426.95,4.867
543,427.04,4.867
544,427.12,4.867
545,427.21,4.867
546,427.30,4.867
547,427.38,4.867
548,427.46,4.867
549,427.53,4.867
550,427.62,4.867
551,427.71,4.867
552,427.80,4.867
553,427.88,4.867
554,427.97,4.867
555,428.04,4.867
556,428.12,4.867
557,428.20,4.867
558,428.29,4.866
559,428.38,4.866
560,428.47,4.866
561,428.55,4.866
562,428.63,4.866
563,428.71,4.866
564,428.79,4.866
565,428.87,4.866
566,428.96,4.866
567,429.04,4.866
568,429.13,4.866
569,429.21,4.866
570,429.30,4.866
571,429.38,4.866
572,429.47,4.866
573,429.55,4.866
574,429.63,4.866
575,429.71,4.866
576,429.79,4.866
577,429.87,4.866
578,429.96,4.866
579,430.05,4.866
580,430.14,4.865
581,430.22,4.865
582,430.30,4.865
583,430.38,4.865
584,430.46,4.865
585,430.54,4.865
586,430.63,4.865
587,430.72,4.865
588,430.80,4.865
589,430.88,4.865
590,430.96,4.865
591,431.04,4.865
592,431.13,4.865
593,431.22,4.865
594,431.30,4.865
595,431.38,4.865
596,431.47,4.865
597,431.55,4.865
598,431.63,4.865
599,431.72,4.864
600,431.80,4.864
601,431.88,4.864
602,431.97,4.864
603,432.05,4.864
604,432.14,4.864
605,432.22,4.864
606,432.30,4.864
607,432.38,4.864
608,432.47,4.864
609,432.55,4.864
610,432.64,4.864
611,432.72,4.864
612,432.81,4.864
613,432.89,4.864
614,432.97,4.864
615,433.05,4.863
616,433.13,4.863
617,433.22,4.863
618,433.30,4.863
619,433.39,4.863
620,433.47,4.863
621,433.55,4.863
622,433.63,4.863
623,433.72,4.863
624,433.80,4.863
625,433.89,4.863
626,433.97,4.863
627,434.06,4.863
628,434.14,4.863
629,434.23,4.863
630,434.31,4.862
631,434.39,4.862
632,434.47,4.862
633,434.56,4.862
634,434.63,4.862
635,434.72,4.862
636,434.81,4.862
637,434.89,4.862
638,434.98,4.862
639,435.06,4.862
640,435.14,4.862
641,435.22,4.862
642,435.30,4.862
643,435.39,4.862
644,435.47,4.862
645,435.56,4.862
646,435.65,4.861
647,435.73,4.861
648,435.81,4.861
649,435.89,4.861
650,435.98,4.861
651,436.06,4.861
652,436.15,4.861
653,436.23,4.861
654,436.31,4.861
655,436.39,4.861
656,436.47,4.861
657,436.56,4.861
658,436.64,4.861
659,436.73,4.861
660,436.81,4.860
661,436.90,4.860
662,436.98,4.860
663,437.06,4.860
664,437.14,4.860
665,437.23,4.860
666,437.31,4.860
667,437.40,4.860
668,437.48,4.860
669,437.56,4.860
670,437.65,4.860
671,437.73,4.860
672,437.81,4.860
673,437.89,4.859
674,437.98,4.859
675,438.06,4.859
676,438.15,4.859
677,438.23,4.859
678,438.32,4.859
679,438.40,4.859
680,438.49,4.859
681,438.56,4.859
682,438.65,4.859
683,438.73,4.859
684,438.81,4.859
685,438.89,4.859
686,438.98,4.859
687,439.06,4.859
688,439.15,4.858
689,439.24,4.858
690,439.32,4.858
691,439.40,4.858
692,439.48,4.858
693,439.56,4.858
694,439.64,4.858
695,439.73,4.858
696,439.81,4.858
697,439.90,4.858
698,439.99,4.858
699,440.07,4.858
700,440.15,4.858
701,440.23,4.857
702,440.32,4.857
703,440.40,4.857
704,440.49,4.857
705,440.57,4.857
706,440.65,4.857
707,440.73,4.857
708,440.81,4.857
709,440.90,4.857
710,440.98,4.857
711,441.07,4.857
712,441.16,4.857
713,441.24,4.857
714,441.33,4.856
715,441.41,4.856
716,441.48,4.856
717,441.56,4.856
718,441.65,4.856
719,441.74,4.856
720,441.83,4.856
721,441.91,4.856
722,441.99,4.856
723,442.07,4.856
724,442.15,4.856
725,442.23,4.855
726,442.32,4.855
727,442.40,4.855
728,442.50,4.855
729,442.57,4.855
730,442.65,4.855
731,442.74,4.855
732,442.82,4.855
733,442.90,4.855
734,442.99,4.855
735,443.08,4.854
736,443.16,4.854
737,443.24,4.854
738,443.32,4.854
739,443.41,4.854
740,443.49,4.854
741,443.57,4.854
742,443.65,4.854
743,443.73,4.854
744,443.82,4.854
745,443.91,4.854
746,443.99,4.853
747,444.08,4.853
748,444.16,4.853
749,444.24,4.853
750,444.32,4.853
751,444.41,4.853
752,444.49,4.853
753,444.57,4.853
754,444.66,4.853
755,444.74,4.853
756,444.83,4.852
757,444.91,4.852
758,444.99,4.852
759,445.08,4.852
760,445.16,4.852
761,445.25,4.852
762,445.33,4.852
763,445.41,4.852
764,445.49,4.852
765,445.58,4.851
766,445.66,4.851
767,445.74,4.851
768,445.83,4.851
769,445.92,4.851
770,446.00,4.851
771,446.08,4.851
772,446.16,4.851
773,446.24,4.851
774,446.33,4.851
775,446.42,4.850
776,446.50,4.850
777,446.58,4.850
778,446.67,4.850
779,446.75,4.850
780,446.83,4.850
781,446.92,4.850
782,447.00,4.850
783,447.08,4.850
784,447.17,4.850
785,447.24,4.849
786,447.33,4.849
787,447.42,4.849
788,447.50,4.849
789,447.58,4.849
790,447.67,4.849
791,447.74,4.849
792,447.83,4.849
793,447.91,4.849
794,448.00,4.848
795,448.08,4.848
796,448.17,4.848
797,448.25,4.848
798,448.33,4.848
799,448.41,4.848
800,448.50,4.848
801,448.58,4.848
802,448.66,4.848
803,448.75,4.847
804,448.83,4.847
805,448.92,4.847
806,449.00,4.847
807,449.08,4.847
808,449.17,4.847
809,449.25,4.847
810,449.33,4.846
811,449.42,4.846
812,449.50,4.846
813,449.59,4.846
814,449.68,4.846
815,449.76,4.846
816,449.84,4.846
817,449.91,4.846
818,449.99,4.845
819,450.08,4.845
820,450.16,4.845
821,450.26,4.845
822,450.35,4.845
823,450.43,4.845
824,450.51,4.845
825,450.59,4.845
826,450.67,4.845
827,450.76,4.844
828,450.84,4.844
829,450.92,4.844
830,451.01,4.844
831,451.09,4.844
832,451.18,4.844
833,451.26,4.844
834,451.34,4.844
835,451.42,4.844
836,451.50,4.843
837,451.59,4.843
838,451.68,4.843
839,451.76,4.843
840,451.85,4.843
841,451.93,4.843
842,452.01,4.843
843,452.09,4.843
844,452.17,4.842
845,452.26,4.842
846,452.34,4.842
847,452.43,4.842
848,452.51,4.842
849,452.59,4.842
850,452.68,4.842
851,452.76,4.841
852,452.84,4.841
853,452.93,4.841
854,453.01,4.841
855,453.09,4.841
856,453.18,4.841
857,453.26,4.841
858,453.34,4.841
859,453.42,4.840
860,453.51,4.840
861,453.59,4.840
862,453.68,4.840
863,453.77,4.840
864,453.85,4.840
865,453.93,4.840
866,454.01,4.839
867,454.09,4.839
868,454.17,4.839
869,454.26,4.839
870,454.35,4.839
871,454.44,4.839
872,454.51,4.839
873,454.59,4.838
874,454.67,4.838
875,454.76,4.838
876,454.85,4.838
877,454.94,4.838
878,455.02,4.838
879,455.10,4.838
880,455.18,4.837
881,455.26,4.837
882,455.35,4.837
883,455.43,4.837
884,455.51,4.837
885,455.60,4.837
886,455.69,4.837
887,455.77,4.836
888,455.85,4.836
889,455.93,4.836
890,456.02,4.836
891,456.10,4.836
892,456.19,4.836
893,456.27,4.835
894,456.35,4.835
895,456.43,4.835
896,456.52,4.835
897,456.60,4.835
898,456.69,4.835
899,456.77,4.835
900,456.85,4.834
901,456.94,4.834
902,457.02,4.834
903,457.10,4.834
904,457.18,4.834
905,457.27,4.834
906,457.35,4.833
907,457.44,4.833
908,457.52,4.833
909,457.60,4.833
910,457.68,4.833
911,457.77,4.833
912,457.85,4.833
913,457.94,4.832
914,458.02,4.832
915,458.10,4.832
916,458.18,4.832
917,458.27,4.832
918,458.36,4.832
919,458.44,4.831
920,458.52,4.831
921,458.60,4.831
922,458.69,4.831
923,458.77,4.831
924,458.85,4.831
925,458.94,4.830
926,459.02,4.830
927,459.10,4.830
928,459.19,4.830
929,459.28,4.830
930,459.36,4.830
931,459.44,4.829
932,459.52,4.829
933,459.60,4.829
934,459.69,4.829
935,459.77,4.829
936,459.85,4.829
937,459.94,4.828
938,460.02,4.828
939,460.11,4.828
940,460.19,4.828
941,460.27,4.828
942,460.36,4.827
943,460.44,4.827
944,460.52,4.827
945,460.61,4.827
946,460.69,4.827
947,460.77,4.827
948,460.86,4.826
949,460.94,4.826
950,461.03,4.826
951,461.11,4.826
952,461.19,4.826
953,461.27,4.826
954,461.36,4.825
955,461.45,4.825
956,461.53,4.825
957,461.61,4.825
958,461.69,4.825
959,461.78,4.824
960,461.86,4.824
961,461.94,4.824
962,462.03,4.824
963,462.12,4.824
964,462.20,4.824
965,462.28,4.823
966,462.36,4.823
967,462.44,4.823
968,462.53,4.823
969,462.61,4.823
970,462.70,4.822
971,462.79,4.822
972,462.86,4.822
973,462.95,4.822
974,463.03,4.822
975,463.11,4.821
976,463.19,4.821
977,463.28,4.821
978,463.36,4.821
979,463.45,4.821
980,463.53,4.820
981,463.62,4.820
982,463.70,4.820
983,463.78,4.820
984,463.86,4.820
985,463.94,4.820
986,464.03,4.819
987,464.11,4.819
988,464.20,4.819
989,464.28,4.819
990,464.36,4.819
991,464.45,4.818
992,464.53,4.818
993,464.61,4.818
994,464.71,4.818
995,464.79,4.818
996,464.87,4.818
997,464.95,4.817
998,465.03,4.817
999,465.12,4.817
1000,465.20,4.817
1001,465.29,4.817
1002,465.37,4.816
1003,465.45,4.816
1004,465.53,4.816
1005,465.62,4.816
1006,465.70,4.816
1007,465.78,4.815
1008,465.87,4.815
1009,465.96,4.815
1010,466.04,4.815
1011,466.12,4.815
1012,466.20,4.814
1013,466.28,4.814
1014,466.37,4.814
1015,466.45,4.814
1016,466.54,4.814
1017,466.62,4.813
1018,466.70,4.813
1019,466.79,4.813
1020,466.87,4.813
1021,466.96,4.813
1022,467.04,4.812
1023,467.12,4.812
1024,467.20,4.812
1025,467.29,4.812
1026,467.37,4.812
1027,467.46,4.811
1028,467.54,4.811
1029,467.62,4.811
1030,467.70,4.811
1031,467.78,4.811
1032,467.87,4.810
1033,467.96,4.810
1034,468.04,4.810
1035,468.13,4.810
1036,468.21,4.809
1037,468.29,4.809
1038,468.38,4.809
1039,468.46,4.809
1040,468.54,4.809
1041,468.62,4.808
1042,468.71,4.808
1043,468.79,4.808
1044,468.88,4.808
1045,468.96,4.808
1046,469.04,4.807
1047,469.12,4.807
1048,469.21,4.807
1049,469.30,4.807
1050,469.37,4.806
1051,469.46,4.806
1052,469.55,4.806
1053,469.63,4.806
1054,469.71,4.806
1055,469.79,4.805
1056,469.87,4.805
1057,469.95,4.805
1058,470.04,4.805
1059,470.13,4.804
1060,470.22,4.804
1061,470.30,4.804
1062,470.37,4.804
1063,470.46,4.804
1064,470.54,4.803
1065,470.62,4.803
1066,470.72,4.803
1067,470.80,4.803
1068,470.87,4.802
1069,470.96,4.802
1070,471.05,4.802
1071,471.13,4.802
1072,471.21,4.802
1073,471.29,4.801
1074,471.38,4.801
1075,471.47,4.801
1076,471.55,4.801
1077,471.63,4.800
1078,471.71,4.800
1079,471.80,4.800
1080,471.88,4.800
1081,471.96,4.799
1082,472.05,4.799
1083,472.14,4.799
1084,472.22,4.799
1085,472.30,4.799
1086,472.37,4.798
1087,472.46,4.798
1088,472.55,4.798
1089,472.63,4.798
1090,472.72,4.797
1091,472.80,4.797
1092,472.88,4.797
1093,472.97,4.797
1094,473.05,4.796
1095,473.14,4.796
1096,473.22,4.796
1097,473.30,4.796
1098,473.38,4.795
1099,473.46,4.795
1100,473.55,4.795
1101,473.63,4.795
1102,473.72,4.794
1103,473.80,4.794
1104,473.89,4.794
1105,473.97,4.794
1106,474.06,4.794
1107,474.13,4.793
1108,474.22,4.793
1109,474.30,4.793
1110,474.39,4.793
1111,474.47,4.792
1112,474.56,4.792
1113,474.64,4.792
1114,474.72,4.792
1115,474.80,4.791
1116,474.88,4.791
1117,474.97,4.791
1118,475.06,4.791
1119,475.14,4.790
1120,475.22,4.790
1121,475.31,4.790
1122,475.39,4.790
1123,475.47,4.789
1124,475.55,4.789
1125,475.63,4.789
1126,475.72,4.789
1127,475.81,4.788
1128,475.89,4.788
1129,475.97,4.788
1130,476.05,4.788
1131,476.13,4.787
1132,476.22,4.787
1133,476.30,4.787
1134,476.39,4.787
1135,476.48,4.786
1136,476.56,4.786
1137,476.64,4.786
1138,476.72,4.786
1139,476.80,4.786
1140,476.89,4.785
1141,476.97,4.785
1142,477.06,4.785
1143,477.14,4.785
1144,477.22,4.784
1145,477.31,4.784
1146,477.39,4.784
1147,477.48,4.784
1148,477.56,4.783
1149,477.64,4.783
1150,477.72,4.783
1151,477.80,4.783
1152,477.89,4.782
1153,477.97,4.782
1154,478.06,4.782
1155,478.15,4.781
1156,478.23,4.781
1157,478.31,4.781
1158,478.39,4.781
1159,478.48,4.780
1160,478.56,4.780
1161,478.64,4.780
1162,478.73,4.780
1163,478.81,4.779
1164,478.90,4.779
1165,478.98,4.779
1166,479.06,4.779
1167,479.14,4.778
1168,479.23,4.778
1169,479.31,4.778
1170,479.40,4.778
1171,479.48,4.777
1172,479.56,4.777
1173,479.65,4.777
1174,479.73,4.776
1175,479.82,4.776
1176,479.89,4.776
1177,479.97,4.776
1178,480.06,4.775
1179,480.15,4.775
1180,480.23,4.775
1181,480.32,4.775
1182,480.40,4.774
1183,480.48,4.774
1184,480.56,4.774
1185,480.64,4.774
1186,480.73,4.773
1187,480.82,4.773
1188,480.90,4.773
1189,480.99,4.772
1190,481.06,4.772
1191,481.15,4.772
1192,481.23,4.772
1193,481.31,4.771
1194,481.40,4.771
1195,481.48,4.771
1196,481.57,4.771
1197,481.65,4.770
1198,481.73,4.770
1199,481.82,4.770
1200,481.90,4.770
1201,481.99,4.769
1202,482.07,4.769
1203,482.15,4.769
1204,482.23,4.768
1205,482.31,4.768
1206,482.40,4.768
1207,482.48,4.768
1208,482.57,4.767
1209,482.65,4.767
1210,482.73,4.767
1211,482.82,4.767
1212,482.90,4.766
1213,482.98,4.766
1214,483.07,4.766
1215,483.16,4.765
1216,483.24,4.765
1217,483.32,4.765
1218,483.40,4.765
1219,483.49,4.764
1220,483.57,4.764
1221,483.66,4.764
1222,483.74,4.763
1223,483.82,4.763
1224,483.90,4.763
1225,483.99,4.763
1226,484.07,4.762
1227,484.16,4.762
1228,484.24,4.762
1229,484.32,4.761
1230,484.40,4.761
1231,484.49,4.761
1232,484.57,4.761
1233,484.65,4.760
1234,484.74,4.760
1235,484.83,4.760
1236,484.91,4.759
1237,484.99,4.759
1238,485.07,4.759
1239,485.15,4.759
1240,485.24,4.758
1241,485.32,4.758
1242,485.41,4.758
1243,485.49,4.757
1244,485.57,4.757
1245,485.66,4.757
1246,485.74,4.756
1247,485.82,4.756
1248,485.91,4.756
1249,486.00,4.756
1250,486.08,4.755
1251,486.16,4.755
1252,486.24,4.755
1253,486.32,4.755
1254,486.41,4.754
1255,486.49,4.754
1256,486.58,4.754
1257,486.66,4.754
1258,486.74,4.753
1259,486.83,4.753
1260,486.91,4.753
1261,487.00,4.752
1262,487.08,4.752
1263,487.16,4.752
1264,487.24,4.752
1265,487.33,4.751
1266,487.42,4.751
1267,487.50,4.751
1268,487.57,4.750
1269,487.66,4.750
1270,487.74,4.750
1271,487.83,4.749
1272,487.92,4.749
1273,487.99,4.749
1274,488.08,4.749
1275,488.16,4.748
1276,488.25,4.748
1277,488.33,4.748
1278,488.41,4.747
1279,488.49,4.747
1280,488.58,4.747
1281,488.66,4.746
1282,488.75,4.746
1283,488.83,4.746
1284,488.91,4.746
1285,489.00,4.745
1286,489.08,4.745
1287,489.17,4.745
1288,489.25,4.744
1289,489.33,4.744
1290,489.42,4.744
1291,489.50,4.743
1292,489.58,4.743
1293,489.67,4.743
1294,489.75,4.742
1295,489.84,4.742
1296,489.92,4.742
1297,490.00,4.742
1298,490.08,4.741
1299,490.17,4.741
1300,490.25,4.741
1301,490.33,4.740
1302,490.41,4.740
1303,490.50,4.740
1304,490.59,4.739
1305,490.67,4.739
1306,490.76,4.739
1307,490.84,4.739
1308,490.92,4.738
1309,491.00,4.738
1310,491.08,4.738
1311,491.16,4.737
1312,491.25,4.737
1313,491.34,4.737
1314,491.42,4.736
1315,491.50,4.736
1316,491.58,4.736
1317,491.67,4.735
1318,491.75,4.735
1319,491.84,4.735
1320,491.92,4.734
1321,492.00,4.734
1322,492.08,4.734
1323,492.17,4.733
1324,492.25,4.733
1325,492.34,4.733
1326,492.42,4.732
1327,492.50,4.732
1328,492.59,4.732
1329,492.67,4.731
1330,492.75,4.731
1331,492.84,4.731
1332,492.93,4.730
1333,493.01,4.730
1334,493.09,4.730
1335,493.17,4.729
1336,493.25,4.729
1337,493.33,4.729
1338,493.43,4.728
1339,493.51,4.728
1340,493.59,4.728
1341,493.67,4.727
1342,493.75,4.727
1343,493.83,4.727
1344,493.92,4.726
1345,494.01,4.726
1346,494.10,4.726
1347,494.18,4.726
1348,494.26,4.725
1349,494.34,4.725
1350,494.42,4.725
1351,494.50,4.724
1352,494.59,4.724
1353,494.68,4.724
1354,494.76,4.723
1355,494.84,4.723
1356,494.92,4.723
1357,495.01,4.722
1358,495.10,4.722
1359,495.17,4.722
1360,495.26,4.721
1361,495.34,4.721
1362,495.43,4.721
1363,495.51,4.720
1364,495.59,4.720
1365,495.68,4.719
1366,495.75,4.719
1367,495.84,4.719
1368,495.93,4.718
1369,496.01,4.718
1370,496.10,4.718
1371,496.18,4.717
1372,496.26,4.717
1373,496.35,4.717
1374,496.43,4.716
1375,496.51,4.716
1376,496.59,4.716
1377,496.68,4.715
1378,496.77,4.715
1379,496.85,4.715
1380,496.93,4.714
1381,497.01,4.714
1382,497.09,4.714
1383,497.18,4.713
1384,497.26,4.713
1385,497.35,4.713
1386,497.43,4.712
1387,497.51,4.712
1388,497.60,4.712
1389,497.68,4.711
1390,497.77,4.711
1391,497.85,4.711
1392,497.93,4.710
1393,498.01,4.710
1394,498.09,4.710
1395,498.18,4.709
1396,498.27,4.709
1397,498.35,4.708
1398,498.43,4.708
1399,498.52,4.708
1400,498.60,4.707
1401,498.69,4.707
1402,498.77,4.707
1403,498.85,4.706
1404,498.93,4.706
1405,499.02,4.706
1406,499.10,4.705
1407,499.19,4.705
1408,499.27,4.705
1409,499.35,4.704
1410,499.43,4.704
1411,499.52,4.703
1412,499.60,4.703
1413,499.69,4.703
1414,499.77,4.702
1415,499.85,4.702
1416,499.94,4.702
1417,500.02,4.701
1418,500.11,4.701
1419,500.19,4.700
1420,500.27,4.700
1421,500.35,4.700
1422,500.43,4.699
1423,500.52,4.699
1424,500.60,4.698
1425,500.69,4.698
1426,500.77,4.698
1427,500.86,4.697
1428,500.94,4.697
1429,501.03,4.697
1430,501.10,4.696
1431,501.19,4.696
1432,501.27,4.695
1433,501.35,4.695
1434,501.44,4.695
1435,501.52,4.694
1436,501.61,4.694
1437,501.70,4.694
1438,501.77,4.693
1439,501.86,4.693
1440,501.93,4.692
1441,502.02,4.692
1442,502.11,4.692
1443,502.20,4.691
1444,502.27,4.691
1445,502.36,4.690
1446,502.44,4.690
1447,502.52,4.690
1448,502.60,4.689
1449,502.69,4.689
1450,502.78,4.688
1451,502.86,4.688
1452,502.94,4.688
1453,503.02,4.687
1454,503.11,4.687
1455,503.19,4.686
1456,503.28,4.686
1457,503.36,4.686
1458,503.44,4.685
1459,503.52,4.685
1460,503.60,4.684
1461,503.69,4.684
1462,503.77,4.684
1463,503.86,4.683
1464,503.95,4.683
1465,504.03,4.682
1466,504.11,4.682
1467,504.19,4.682
1468,504.28,4.681
1469,504.36,4.681
1470,504.45,4.680
1471,504.53,4.680
1472,504.61,4.679
1473,504.69,4.679
1474,504.78,4.679
1475,504.86,4.678
1476,504.95,4.678
1477,505.03,4.677
1478,505.11,4.677
1479,505.20,4.676
1480,505.28,4.676
1481,505.37,4.676
1482,505.45,4.675
1483,505.53,4.675
1484,505.62,4.674
1485,505.70,4.674
1486,505.78,4.673
1487,505.86,4.673
1488,505.94,4.673
1489,506.02,4.672
1490,506.12,4.672
1491,506.20,4.671
1492,506.28,4.671
1493,506.37,4.670
1494,506.45,4.670
1495,506.53,4.669
1496,506.61,4.669
1497,506.70,4.669
1498,506.79,4.668
1499,506.87,4.668
1500,506.95,4.667
1501,507.03,4.667
1502,507.11,4.666
1503,507.20,4.666
1504,507.28,4.666
1505,507.37,4.665
1506,507.45,4.665
1507,507.53,4.664
1508,507.62,4.664
1509,507.71,4.663
1510,507.79,4.663
1511,507.87,4.662
1512,507.95,4.662
1513,508.03,4.662
1514,508.11,4.661
1515,508.20,4.661
1516,508.29,4.660
1517,508.37,4.660
1518,508.46,4.659
1519,508.53,4.659
1520,508.61,4.658
1521,508.70,4.658
1522,508.79,4.657
1523,508.87,4.657
1524,508.95,4.656
1525,509.04,4.656
1526,509.12,4.655
1527,509.21,4.655
1528,509.29,4.655
1529,509.37,4.654
1530,509.45,4.654
1531,509.54,4.653
1532,509.62,4.653
1533,509.71,4.652
1534,509.79,4.652
1535,509.87,4.651
1536,509.95,4.651
1537,510.04,4.650
1538,510.12,4.650
1539,510.21,4.649
1540,510.30,4.649
1541,510.37,4.648
1542,510.45,4.648
1543,510.54,4.647
1544,510.62,4.647
1545,510.71,4.646
1546,510.79,4.646
1547,510.88,4.645
1548,510.96,4.645
1549,511.04,4.644
1550,511.12,4.644
1551,511.20,4.643
1552,511.29,4.643
1553,511.37,4.642
1554,511.46,4.642
1555,511.54,4.641
1556,511.63,4.641
1557,511.71,4.640
1558,511.79,4.640
1559,511.88,4.639
1560,511.96,4.639
1561,512.04,4.638
1562,512.12,4.638
1563,512.21,4.637
1564,512.29,4.637
1565,512.37,4.636
1566,512.46,4.636
1567,512.55,4.635
1568,512.63,4.635
1569,512.71,4.634
1570,512.79,4.634
1571,512.88,4.633
1572,512.96,4.633
1573,513.04,4.632
1574,513.13,4.632
1575,513.21,4.631
1576,513.30,4.631
1577,513.38,4.630
1578,513.46,4.629
1579,513.55,4.629
1580,513.63,4.628
1581,513.71,4.628
1582,513.79,4.627
1583,513.87,4.627
1584,513.96,4.626
1585,514.04,4.626
1586,514.14,4.625
1587,514.22,4.625
1588,514.30,4.624
1589,514.38,4.624
1590,514.46,4.623
1591,514.54,4.622
1592,514.63,4.622
1593,514.72,4.621
1594,514.80,4.621
1595,514.89,4.620
1596,514.96,4.620
1597,515.05,4.619
1598,515.13,4.619
1599,515.21,4.618
1600,515.30,4.617
1601,515.39,4.617
1602,515.46,4.616
1603,515.55,4.616
1604,515.63,4.615
1605,515.72,4.615
1606,515.80,4.614
1607,515.89,4.614
1608,515.97,4.613
1609,516.05,4.612
1610,516.13,4.612
1611,516.22,4.611
1612,516.30,4.611
1613,516.39,4.610
1614,516.46,4.609
1615,516.55,4.609
1616,516.63,4.608
1617,516.71,4.608
1618,516.80,4.607
1619,516.88,4.607
1620,516.97,4.606
1621,517.06,4.605
1622,517.14,4.605
1623,517.22,4.604
1624,517.30,4.604
1625,517.38,4.603
1626,517.46,4.602
1627,517.55,4.602
1628,517.64,4.601
1629,517.73,4.601
1630,517.81,4.600
1631,517.89,4.599
1632,517.97,4.599
1633,518.05,4.598
1634,518.13,4.598
1635,518.23,4.597
1636,518.31,4.596
1637,518.39,4.596
1638,518.47,4.595
1639,518.55,4.595
1640,518.64,4.594
1641,518.72,4.593
1642,518.81,4.593
1643,518.89,4.592
1644,518.98,4.591
1645,519.05,4.591
1646,519.14,4.590
1647,519.22,4.590
1648,519.31,4.589
1649,519.39,4.588
1650,519.47,4.588
1651,519.55,4.587
1652,519.64,4.586
1653,519.73,4.586
1654,519.81,4.585
1655,519.89,4.585
1656,519.97,4.584
1657,520.05,4.583
1658,520.15,4.583
1659,520.23,4.582
1660,520.31,4.581
1661,520.39,4.581
1662,520.47,4.580
1663,520.56,4.579
1664,520.65,4.579
1665,520.73,4.578
1666,520.81,4.577
1667,520.89,4.577
1668,520.97,4.576
1669,521.05,4.575
1670,521.14,4.575
1671,521.23,4.574
1672,521.32,4.573
1673,521.39,4.573
1674,521.47,4.572
1675,521.56,4.571
1676,521.65,4.571
1677,521.74,4.570
1678,521.82,4.569
1679,521.89,4.569
1680,521.98,4.568
1681,522.06,4.567
1682,522.14,4.567
1683,522.23,4.566
1684,522.31,4.565
1685,522.40,4.565
1686,522.48,4.564
1687,522.56,4.563
1688,522.64,4.563
1689,522.73,4.562
1690,522.81,4.561
1691,522.90,4.560
1692,522.98,4.560
1693,523.06,4.559
1694,523.15,4.558
1695,523.23,4.558
1696,523.32,4.557
1697,523.40,4.556
1698,523.48,4.556
1699,523.57,4.555
1700,523.65,4.554
1701,523.73,4.554
1702,523.81,4.553
1703,523.90,4.552
1704,523.99,4.551
1705,524.07,4.551
1706,524.15,4.550
1707,524.22,4.549
1708,524.31,4.549
1709,524.40,4.548
1710,524.48,4.547
1711,524.57,4.546
1712,524.65,4.546
1713,524.73,4.545
1714,524.82,4.544
1715,524.90,4.544
1716,524.99,4.543
1717,525.06,4.542
1718,525.15,4.541
1719,525.24,4.540
1720,525.32,4.540
1721,525.41,4.539
1722,525.49,4.538
1723,525.57,4.537
1724,525.65,4.537
1725,525.74,4.536
1726,525.82,4.535
1727,525.90,4.534
1728,525.98,4.534
1729,526.06,4.533
1730,526.15,4.532
1731,526.23,4.532
1732,526.32,4.531
1733,526.40,4.530
1734,526.49,4.529
1735,526.57,4.529
1736,526.65,4.528
1737,526.74,4.527
1738,526.82,4.527
1739,526.90,4.526
1740,526.99,4.525
1741,527.07,4.524
1742,527.15,4.524
1743,527.24,4.523
1744,527.33,4.522
1745,527.41,4.521
1746,527.49,4.521
1747,527.57,4.520
1748,527.65,4.519
1749,527.74,4.518
1750,527.83,4.517
1751,527.91,4.517
1752,527.99,4.516
1753,528.07,4.515
1754,528.15,4.514
1755,528.24,4.513
1756,528.33,4.512
1757,528.41,4.511
1758,528.49,4.510
1759,528.57,4.509
1760,528.66,4.508
1761,528.74,4.507
1762,528.82,4.506
1763,528.91,4.505
1764,529.00,4.505
1765,529.08,4.504
1766,529.16,4.503
1767,529.24,4.503
1768,529.32,4.502
1769,529.41,4.501
1770,529.49,4.501
1771,529.57,4.500
1772,529.66,4.499
1773,529.74,4.498
1774,529.83,4.497
1775,529.91,4.496
1776,529.99,4.495
1777,530.07,4.494
1778,530.16,4.494
1779,530.24,4.493
1780,530.34,4.492
1781,530.41,4.491
1782,530.49,4.490
1783,530.58,4.489
1784,530.66,4.489
1785,530.75,4.488
1786,530.83,4.487
1787,530.91,4.486
1788,530.99,4.485
1789,531.08,4.485
1790,531.16,4.484
1791,531.25,4.484
1792,531.33,4.483
1793,531.42,4.482
1794,531.50,4.482
1795,531.58,4.481
1796,531.66,4.480
1797,531.75,4.479
1798,531.83,4.478
1799,531.92,4.478
1800,532.00,4.477
1801,532.08,4.476
1802,532.16,4.475
1803,532.25,4.474
1804,532.33,4.473
1805,532.41,4.473
1806,532.50,4.472
1807,532.58,4.471
1808,532.67,4.470
1809,532.75,4.469
1810,532.83,4.468
1811,532.91,4.468
1812,533.00,4.467
1813,533.08,4.466
1814,533.17,4.465
1815,533.25,4.465
1816,533.33,4.464
1817,533.42,4.463
1818,533.50,4.462
1819,533.58,4.461
1820,533.67,4.460
1821,533.75,4.460
1822,533.83,4.459
1823,533.91,4.458
1824,533.99,4.457
1825,534.08,4.456
1826,534.17,4.455
1827,534.26,4.454
1828,534.34,4.454
1829,534.42,4.453
1830,534.50,4.452
1831,534.58,4.451
1832,534.67,4.450
1833,534.75,4.449
1834,534.84,4.449
1835,534.92,4.448
1836,535.00,4.447
1837,535.09,4.446
1838,535.17,4.445
1839,535.26,4.444
1840,535.34,4.443
1841,535.42,4.443
1842,535.50,4.442
1843,535.59,4.441
1844,535.68,4.440
1845,535.76,4.439
1846,535.84,4.438
1847,535.93,4.437
1848,536.00,4.437
1849,536.09,4.436
1850,536.18,4.435
1851,536.26,4.434
1852,536.34,4.433
1853,536.42,4.432
1854,536.50,4.431
1855,536.59,4.430
1856,536.68,4.429
1857,536.76,4.429
1858,536.84,4.428
1859,536.93,4.427
1860,537.00,4.426
1861,537.09,4.425
1862,537.17,4.424
1863,537.25,4.423
1864,537.34,4.422
1865,537.42,4.421
1866,537.51,4.421
1867,537.59,4.420
1868,537.68,4.419
1869,537.76,4.418
1870,537.84,4.417
1871,537.93,4.416
1872,538.01,4.415
1873,538.10,4.414
1874,538.18,4.413
1875,538.26,4.413
1876,538.34,4.412
1877,538.42,4.411
1878,538.51,4.410
1879,538.60,4.409
1880,538.68,4.408
1881,538.76,4.407
1882,538.84,4.406
1883,538.92,4.405
1884,539.01,4.404
1885,539.10,4.404
1886,539.18,4.403
1887,539.27,4.402
1888,539.35,4.401
1889,539.43,4.400
1890,539.51,4.399
1891,539.60,4.398
1892,539.68,4.397
1893,539.76,4.396
1894,539.85,4.395
1895,539.93,4.394
1896,540.01,4.393
1897,540.10,4.393
1898,540.18,4.392
1899,540.26,4.391
1900,540.34,4.390
1901,540.43,4.389
1902,540.51,4.388
1903,540.60,4.387
1904,540.68,4.386
1905,540.77,4.385
1906,540.85,4.384
1907,540.93,4.383
1908,541.02,4.382
1909,541.10,4.381
1910,541.18,4.380
1911,541.26,4.379
1912,541.35,4.379
1913,541.43,4.378
1914,541.52,4.377
1915,541.60,4.376
1916,541.68,4.375
1917,541.77,4.374
1918,541.85,4.373
1919,541.93,4.372
1920,542.01,4.371
1921,542.10,4.370
1922,542.19,4.369
1923,542.27,4.368
1924,542.35,4.367
1925,542.43,4.366
1926,542.51,4.365
1927,542.60,4.364
1928,542.68,4.363
1929,542.77,4.363
1930,542.85,4.362
1931,542.94,4.361
1932,543.02,4.360
1933,543.11,4.359
1934,543.19,4.358
1935,543.27,4.357
1936,543.35,4.356
1937,543.43,4.355
1938,543.52,4.354
1939,543.61,4.353
1940,543.69,4.352
1941,543.77,4.351
1942,543.85,4.350
1943,543.93,4.349
1944,544.02,4.348
1945,544.11,4.347
1946,544.20,4.346
1947,544.27,4.345
1948,544.35,4.344
1949,544.43,4.343
1950,544.52,4.343
1951,544.61,4.342
1952,544.69,4.341
1953,544.77,4.340
1954,544.85,4.339
1955,544.94,4.338
1956,545.03,4.337
1957,545.11,4.336
1958,545.19,4.335
1959,545.27,4.334
1960,545.35,4.333
1961,545.44,4.332
1962,545.52,4.331
1963,545.61,4.330
1964,545.69,4.329
1965,545.77,4.328
1966,545.86,4.327
1967,545.95,4.326
1968,546.03,4.325
1969,546.10,4.324
1970,546.18,4.323
1971,546.27,4.322
1972,546.36,4.321
1973,546.44,4.320
1974,546.53,4.319
1975,546.62,4.318
1976,546.69,4.317
1977,546.77,4.316
1978,546.85,4.315
1979,546.94,4.314
1980,547.03,4.313
1981,547.11,4.312
1982,547.20,4.311
1983,547.28,4.310
1984,547.36,4.309
1985,547.44,4.308
1986,547.52,4.307
1987,547.61,4.306
1988,547.69,4.305
1989,547.78,4.304
1990,547.86,4.303
1991,547.94,4.302
1992,548.03,4.301
1993,548.12,4.300
1994,548.20,4.299
1995,548.28,4.298
1996,548.36,4.297
1997,548.44,4.296
1998,548.53,4.295
1999,548.62,4.294
2000,548.70,4.293
2001,548.78,4.292
2002,548.86,4.291
2003,548.95,4.290
2004,549.03,4.289
2005,549.12,4.288
2006,549.20,4.287
2007,549.28,4.286
2008,549.36,4.285
2009,549.45,4.284
2010,549.53,4.283
2011,549.61,4.282
2012,549.70,4.281
2013,549.78,4.280
2014,549.87,4.279
2015,549.96,4.278
2016,550.03,4.277
2017,550.11,4.276
2018,550.20,4.275
2019,550.28,4.274
2020,550.37,4.273
2021,550.46,4.272
2022,550.54,4.271
2023,550.61,4.270
2024,550.69,4.269
2025,550.78,4.268
2026,550.87,4.267
2027,550.96,4.266
2028,551.03,4.265
2029,551.11,4.264
2030,551.20,4.262
2031,551.28,4.261
2032,551.37,4.260
2033,551.45,4.259
2034,551.54,4.258
2035,551.62,4.257
2036,551.70,4.256
2037,551.78,4.255
2038,551.86,4.254
2039,551.95,4.253
2040,552.04,4.252
2041,552.12,4.251
2042,552.21,4.250
2043,552.29,4.249
2044,552.37,4.248
2045,552.45,4.247
2046,552.54,4.246
2047,552.62,4.245
2048,552.70,4.244
2049,552.79,4.243
2050,552.87,4.242
2051,552.95,4.241
2052,553.04,4.240
2053,553.12,4.239
2054,553.20,4.238
2055,553.29,4.237
2056,553.37,4.236
2057,553.45,4.235
2058,553.54,4.234
2059,553.63,4.233
2060,553.71,4.232
2061,553.79,4.231
2062,553.87,4.230
2063,553.95,4.229
2064,554.04,4.228
2065,554.12,4.227
2066,554.21,4.225
2067,554.29,4.224
2068,554.38,4.223
2069,554.46,4.222
2070,554.53,4.221
2071,554.62,4.220
2072,554.71,4.219
2073,554.79,4.218
2074,554.87,4.217
2075,554.95,4.215
2076,555.04,4.214
2077,555.13,4.213
2078,555.21,4.212
2079,555.30,4.211
2080,555.38,4.210
2081,555.45,4.209
2082,555.54,4.208
2083,555.62,4.207
2084,555.71,4.206
2085,555.80,4.205
2086,555.88,4.204
2087,555.96,4.203
2088,556.04,4.202
2089,556.12,4.201
2090,556.21,4.199
2091,556.29,4.198
2092,556.38,4.197
2093,556.47,4.196
2094,556.55,4.195
2095,556.63,4.194
2096,556.71,4.193
2097,556.80,4.192
2098,556.88,4.191
2099,556.96,4.190
2100,557.04,4.189
2101,557.13,4.188
2102,557.21,4.187
2103,557.30,4.185
2104,557.38,4.184
2105,557.46,4.183
2106,557.55,4.182
2107,557.63,4.181
2108,557.71,4.180
2109,557.80,4.179
2110,557.88,4.178
2111,557.96,4.177
2112,558.05,4.176
2113,558.13,4.174
2114,558.21,4.173
2115,558.30,4.172
2116,558.38,4.171
2117,558.46,4.170
2118,558.54,4.169
2119,558.63,4.168
2120,558.72,4.167
2121,558.80,4.166
2122,558.89,4.165
2123,558.97,4.164
2124,559.05,4.162
2125,559.13,4.161
2126,559.22,4.160
2127,559.30,4.159
2128,559.38,4.158
2129,559.46,4.157
2130,559.55,4.156
2131,559.64,4.154
2132,559.72,4.153
2133,559.80,4.152
2134,559.88,4.151
2135,559.97,4.150
2136,560.05,4.149
2137,560.14,4.148
2138,560.21,4.146
2139,560.30,4.145
2140,560.38,4.144
2141,560.47,4.143
2142,560.55,4.142
2143,560.63,4.141
2144,560.72,4.140
2145,560.80,4.139
2146,560.88,4.138
2147,560.97,4.136
2148,561.06,4.135
2149,561.14,4.134
2150,561.22,4.133
2151,561.30,4.132
2152,561.38,4.131
2153,561.47,4.129
2154,561.56,4.128
2155,561.64,4.127
2156,561.73,4.126
2157,561.80,4.124
2158,561.89,4.123
2159,561.97,4.122
2160,562.05,4.121
2161,562.14,4.120
2162,562.22,4.119
2163,562.31,4.118
2164,562.39,4.117
2165,562.47,4.116
2166,562.55,4.114
2167,562.63,4.113
2168,562.72,4.112
2169,562.81,4.111
2170,562.89,4.109
2171,562.98,4.108
2172,563.06,4.107
2173,563.13,4.106
2174,563.22,4.105
2175,563.31,4.103
2176,563.40,4.102
2177,563.48,4.101
2178,563.56,4.100
2179,563.63,4.099
2180,563.72,4.098
2181,563.81,4.097
2182,563.90,4.095
2183,563.98,4.095
2184,564.06,4.094
2185,564.14,4.092
2186,564.22,4.091
2187,564.31,4.090
2188,564.40,4.089
2189,564.48,4.088
2190,564.56,4.087
2191,564.64,4.085
2192,564.73,4.084
2193,564.81,4.083
2194,564.90,4.082
2195,564.97,4.081
2196,565.06,4.080
2197,565.14,4.078
2198,565.23,4.077
2199,565.31,4.076
2200,565.40,4.075
2201,565.47,4.074
2202,565.56,4.073
2203,565.65,4.071
2204,565.73,4.070
2205,565.81,4.069
2206,565.89,4.068
2207,565.98,4.067
2208,566.07,4.065
2209,566.15,4.064
2210,566.23,4.063
2211,566.31,4.062
2212,566.39,4.060
2213,566.48,4.059
2214,566.57,4.058
2215,566.66,4.057
2216,566.74,4.056
2217,566.81,4.054
2218,566.89,4.053
2219,566.97,4.052
2220,567.06,4.051
2221,567.15,4.049
2222,567.24,4.048
2223,567.31,4.047
2224,567.40,4.046
2225,567.48,4.044
2226,567.57,4.043
2227,567.65,4.042
2228,567.74,4.041
2229,567.82,4.040
2230,567.90,4.038
2231,567.98,4.037
2232,568.06,4.036
2233,568.15,4.035
2234,568.23,4.034
2235,568.32,4.032
2236,568.41,4.031
2237,568.49,4.030
2238,568.57,4.029
2239,568.65,4.027
2240,568.73,4.026
2241,568.82,4.025
2242,568.90,4.024
2243,568.99,4.022
2244,569.07,4.021
2245,569.15,4.020
2246,569.24,4.018
2247,569.32,4.017
2248,569.40,4.016
2249,569.48,4.015
2250,569.57,4.013
2251,569.65,4.012
2252,569.74,4.011
2253,569.82,4.010
2254,569.91,4.008
2255,569.99,4.007
2256,570.07,4.006
2257,570.15,4.005
2258,570.23,4.003
2259,570.33,4.002
2260,570.41,4.001
2261,570.49,4.000
2262,570.57,3.998
2263,570.65,3.997
2264,570.74,3.996
2265,570.82,3.995
2266,570.91,3.993
2267,570.99,3.992
2268,571.07,3.991
2269,571.15,3.990
2270,571.24,3.988
2271,571.32,3.987
2272,571.40,3.986
2273,571.49,3.984
2274,571.57,3.983
2275,571.65,3.982
2276,571.74,3.981
2277,571.82,3.979
2278,571.91,3.978
2279,571.99,3.977
2280,572.07,3.975
2281,572.16,3.974
2282,572.24,3.973
2283,572.33,3.971
2284,572.41,3.970
2285,572.49,3.969
2286,572.57,3.967
2287,572.66,3.966
2288,572.75,3.965
2289,572.82,3.963
2290,572.91,3.962
2291,572.99,3.961
2292,573.08,3.959
2293,573.16,3.958
2294,573.25,3.956
2295,573.32,3.955
2296,573.41,3.954
2297,573.49,3.952
2298,573.58,3.951
2299,573.66,3.950
2300,573.75,3.948
2301,573.83,3.947
2302,573.91,3.946
2303,573.99,3.945
2304,574.07,3.943
2305,574.16,3.942
2306,574.25,3.941
2307,574.33,3.939
2308,574.41,3.938
2309,574.49,3.937
2310,574.58,3.935
2311,574.66,3.934
2312,574.75,3.933
2313,574.83,3.931
2314,574.91,3.930
2315,575.00,3.929
2316,575.08,3.927
2317,575.16,3.926
2318,575.25,3.924
2319,575.33,3.923
2320,575.42,3.922
2321,575.50,3.920
2322,575.58,3.919
2323,575.67,3.917
2324,575.75,3.916
2325,575.84,3.915
2326,575.91,3.913
2327,575.99,3.912
2328,576.08,3.910
2329,576.17,3.909
2330,576.25,3.908
2331,576.33,3.906
2332,576.41,3.905
2333,576.50,3.903
2334,576.59,3.902
2335,576.67,3.901
2336,576.75,3.899
2337,576.83,3.898
2338,576.91,3.897
2339,577.00,3.895
2340,577.08,3.894
2341,577.17,3.892
2342,577.25,3.891
2343,577.33,3.890
2344,577.42,3.888
2345,577.50,3.887
2346,577.59,3.885
2347,577.67,3.884
2348,577.75,3.882
2349,577.83,3.881
2350,577.92,3.879
2351,578.00,3.878
2352,578.09,3.877
2353,578.17,3.875
2354,578.26,3.874
2355,578.34,3.872
2356,578.42,3.871
2357,578.50,3.869
2358,578.58,3.868
2359,578.67,3.867
2360,578.76,3.865
2361,578.84,3.864
2362,578.92,3.862
2363,579.00,3.861
2364,579.08,3.860
2365,579.17,3.858
2366,579.25,3.857
2367,579.34,3.855
2368,579.42,3.854
2369,579.50,3.852
2370,579.59,3.851
2371,579.67,3.849
2372,579.75,3.848
2373,579.84,3.847
2374,579.92,3.845
2375,580.01,3.844
2376,580.09,3.842
2377,580.17,3.841
2378,580.26,3.839
2379,580.34,3.838
2380,580.42,3.836
2381,580.51,3.834
2382,580.59,3.832
2383,580.67,3.831
2384,580.76,3.829
2385,580.85,3.828
2386,580.93,3.826
2387,581.01,3.825
2388,581.09,3.823
2389,581.18,3.821
2390,581.26,3.820
2391,581.34,3.818
2392,581.42,3.817
2393,581.51,3.816
2394,581.59,3.814
2395,581.68,3.813
2396,581.76,3.812
2397,581.84,3.810
2398,581.92,3.809
2399,582.01,3.807
2400,582.09,3.806
2401,582.18,3.804
2402,582.26,3.803
2403,582.34,3.801
2404,582.42,3.800
2405,582.51,3.798
2406,582.59,3.797
2407,582.68,3.795
2408,582.76,3.794
2409,582.85,3.792
2410,582.93,3.791
2411,583.01,3.789
2412,583.09,3.788
2413,583.18,3.786
2414,583.26,3.784
2415,583.35,3.783
2416,583.43,3.781
2417,583.51,3.780
2418,583.60,3.778
2419,583.68,3.776
2420,583.76,3.775
2421,583.84,3.773
2422,583.93,3.772
2423,584.02,3.770
2424,584.10,3.769
2425,584.19,3.767
2426,584.27,3.765
2427,584.35,3.764
2428,584.43,3.762
2429,584.51,3.761
2430,584.60,3.759
2431,584.68,3.757
2432,584.76,3.756
2433,584.85,3.754
2434,584.93,3.752
2435,585.02,3.751
2436,585.10,3.749
2437,585.18,3.747
2438,585.26,3.746
2439,585.35,3.744
2440,585.44,3.742
2441,585.52,3.741
2442,585.60,3.739
2443,585.68,3.737
2444,585.77,3.735
2445,585.85,3.734
2446,585.94,3.732
2447,586.02,3.730
2448,586.10,3.729
2449,586.18,3.727
2450,586.26,3.726
2451,586.35,3.724
2452,586.44,3.723
2453,586.52,3.722
2454,586.60,3.720
2455,586.68,3.718
2456,586.77,3.717
2457,586.86,3.715
2458,586.94,3.714
2459,587.02,3.712
2460,587.10,3.710
2461,587.18,3.709
2462,587.27,3.707
2463,587.35,3.705
2464,587.44,3.703
2465,587.52,3.702
2466,587.60,3.700
2467,587.69,3.698
2468,587.78,3.696
2469,587.85,3.695
2470,587.94,3.693
2471,588.02,3.692
2472,588.10,3.690
2473,588.19,3.688
2474,588.27,3.687
2475,588.36,3.685
2476,588.44,3.683
2477,588.52,3.682
2478,588.60,3.680
2479,588.68,3.678
2480,588.77,3.676
2481,588.85,3.675
2482,588.94,3.673
2483,589.03,3.671
2484,589.11,3.669
2485,589.19,3.667
2486,589.27,3.666
2487,589.35,3.664
2488,589.44,3.662
2489,589.53,3.660
2490,589.61,3.659
2491,589.69,3.657
2492,589.77,3.655
2493,589.85,3.654
2494,589.94,3.652
2495,590.02,3.650
2496,590.11,3.648
2497,590.19,3.647
2498,590.28,3.645
2499,590.35,3.643
2500,590.44,3.641
2501,590.52,3.640
2502,590.61,3.638
2503,590.70,3.636
2504,590.78,3.634
2505,590.86,3.633
2506,590.94,3.631
2507,591.03,3.629
2508,591.11,3.627
2509,591.19,3.625
2510,591.27,3.624
2511,591.36,3.622
2512,591.45,3.620
2513,591.53,3.618
2514,591.61,3.616
2515,591.69,3.615
2516,591.77,3.613
2517,591.86,3.611
2518,591.95,3.609
2519,592.03,3.607
2520,592.11,3.606
2521,592.19,3.604
2522,592.28,3.602
2523,592.36,3.600
2524,592.44,3.598
2525,592.53,3.597
2526,592.62,3.595
2527,592.70,3.593
2528,592.78,3.591
2529,592.86,3.589
2530,592.94,3.588
2531,593.03,3.586
2532,593.12,3.584
2533,593.20,3.582
2534,593.28,3.580
2535,593.36,3.578
2536,593.45,3.576
2537,593.53,3.574
2538,593.62,3.572
2539,593.70,3.570
2540,593.78,3.568
2541,593.87,3.566
2542,593.95,3.564
2543,594.03,3.562
2544,594.11,3.560
2545,594.20,3.558
2546,594.28,3.557
2547,594.37,3.555
2548,594.45,3.553
2549,594.53,3.551
2550,594.62,3.549
2551,594.70,3.547
2552,594.79,3.545
2553,594.87,3.543
2554,594.95,3.541
2555,595.03,3.540
2556,595.12,3.538
2557,595.20,3.536
2558,595.28,3.534
2559,595.37,3.532
2560,595.46,3.530
2561,595.54,3.528
2562,595.62,3.527
2563,595.69,3.525
2564,595.78,3.523
2565,595.87,3.521
2566,595.96,3.519
2567,596.04,3.517
2568,596.12,3.515
2569,596.20,3.513
2570,596.29,3.511
2571,596.37,3.509
2572,596.45,3.507
2573,596.54,3.505
2574,596.62,3.503
2575,596.70,3.501
2576,596.79,3.499
2577,596.87,3.497
2578,596.96,3.495
2579,597.04,3.493
2580,597.12,3.491
2581,597.21,3.489
2582,597.29,3.487
2583,597.37,3.485
2584,597.46,3.483
2585,597.54,3.481
2586,597.62,3.479
2587,597.71,3.477
2588,597.79,3.475
2589,597.87,3.473
2590,597.96,3.471
2591,598.04,3.469
2592,598.13,3.466
2593,598.21,3.464
2594,598.29,3.462
2595,598.37,3.460
2596,598.46,3.458
2597,598.54,3.456
2598,598.62,3.454
2599,598.71,3.452
2600,598.80,3.450
2601,598.88,3.448
2602,598.96,3.446
2603,599.04,3.444
2604,599.12,3.442
2605,599.21,3.440
2606,599.30,3.438
2607,599.38,3.436
2608,599.46,3.434
2609,599.54,3.432
2610,599.62,3.430
2611,599.71,3.428
2612,599.79,3.426
2613,599.87,3.424
2614,599.96,3.421
2615,600.04,3.419
2616,600.13,3.417
2617,600.21,3.415
2618,600.29,3.413
2619,600.37,3.411
2620,600.46,3.409
2621,600.55,3.407
2622,600.63,3.405
2623,600.71,3.403
2624,600.79,3.401
2625,600.88,3.399
2626,600.96,3.397
2627,601.05,3.395
2628,601.13,3.393
2629,601.22,3.391
2630,601.29,3.389
2631,601.38,3.387
2632,601.46,3.385
2633,601.55,3.382
2634,601.63,3.380
2635,601.71,3.378
2636,601.79,3.376
2637,601.88,3.374
2638,601.97,3.371
2639,602.05,3.369
2640,602.13,3.367
2641,602.22,3.365
2642,602.30,3.363
2643,602.38,3.361
2644,602.46,3.358
2645,602.55,3.356
2646,602.63,3.354
2647,602.72,3.352
2648,602.80,3.350
2649,602.88,3.348
2650,602.97,3.345
2651,603.05,3.343
2652,603.14,3.341
2653,603.22,3.339
2654,603.30,3.337
2655,603.38,3.334
2656,603.47,3.332
2657,603.55,3.330
2658,603.64,3.328
2659,603.71,3.326
2660,603.80,3.323
2661,603.88,3.321
2662,603.97,3.319
2663,604.05,3.317
2664,604.13,3.314
2665,604.22,3.312
2666,604.30,3.310
2667,604.39,3.307
2668,604.47,3.305
2669,604.55,3.303
2670,604.63,3.301
2671,604.72,3.298
2672,604.80,3.296
2673,604.88,3.294
2674,604.97,3.292
2675,605.05,3.289
2676,605.14,3.287
2677,605.23,3.285
2678,605.30,3.283
2679,605.39,3.280
2680,605.48,3.278
2681,605.55,3.276
2682,605.64,3.273
2683,605.72,3.271
2684,605.81,3.269
2685,605.89,3.267
2686,605.97,3.264
2687,606.05,3.262
2688,606.14,3.260
2689,606.22,3.258
2690,606.31,3.256
2691,606.39,3.253
2692,606.47,3.251
2693,606.56,3.249
2694,606.64,3.246
2695,606.73,3.244
2696,606.81,3.242
2697,606.89,3.239
2698,606.97,3.237
2699,607.05,3.235
2700,607.14,3.233
2701,607.22,3.230
2702,607.31,3.228
2703,607.39,3.226
2704,607.47,3.223
2705,607.56,3.221
2706,607.64,3.219
2707,607.72,3.216
2708,607.81,3.214
2709,607.90,3.212
2710,607.97,3.209
2711,608.06,3.207
2712,608.14,3.204
2713,608.23,3.202
2714,608.31,3.200
2715,608.39,3.197
2716,608.48,3.195
2717,608.56,3.192
2718,608.65,3.190
2719,608.73,3.188
2720,608.81,3.185
2721,608.89,3.183
2722,608.98,3.180
2723,609.06,3.178
2724,609.14,3.176
2725,609.22,3.173
2726,609.31,3.171
2727,609.40,3.168
2728,609.48,3.166
2729,609.56,3.164
2730,609.64,3.161
2731,609.73,3.159
2732,609.80,3.156
2733,609.89,3.154
2734,609.98,3.151
2735,610.07,3.149
2736,610.15,3.147
2737,610.23,3.144
2738,610.31,3.142
2739,610.39,3.139
2740,610.48,3.137
2741,610.57,3.135
2742,610.65,3.132
2743,610.73,3.130
2744,610.81,3.127
2745,610.90,3.125
2746,610.98,3.122
2747,611.06,3.120
2748,611.15,3.118
2749,611.24,3.115
2750,611.31,3.113
2751,611.40,3.110
2752,611.48,3.108
2753,611.57,3.105
2754,611.65,3.103
2755,611.73,3.100
2756,611.81,3.098
2757,611.90,3.095
2758,611.98,3.093
2759,612.07,3.090
2760,612.15,3.088
2761,612.23,3.085
2762,612.32,3.083
2763,612.40,3.081
2764,612.48,3.078
2765,612.57,3.076
2766,612.65,3.073
2767,612.73,3.071
2768,612.82,3.069
2769,612.90,3.066
2770,612.98,3.064
2771,613.06,3.061
2772,613.15,3.059
2773,613.23,3.056
2774,613.32,3.053
2775,613.41,3.051
2776,613.49,3.048
2777,613.57,3.046
2778,613.65,3.043
2779,613.73,3.041
2780,613.82,3.038
2781,613.90,3.036
2782,613.99,3.033
2783,614.07,3.030
2784,614.16,3.028
2785,614.24,3.025
2786,614.32,3.023
2787,614.40,3.020
2788,614.49,3.018
2789,614.58,3.015
2790,614.66,3.013
2791,614.74,3.010
2792,614.82,3.008
2793,614.90,3.005
2794,614.99,3.003
2795,615.08,3.000
2796,615.16,2.997
2797,615.24,2.995
2798,615.32,2.992
2799,615.40,2.990
2800,615.49,2.987
2801,615.58,2.985
2802,615.66,2.982
2803,615.74,2.979
2804,615.82,2.977
2805,615.91,2.974
2806,615.99,2.972
2807,616.07,2.969
2808,616.16,2.967
2809,616.24,2.964
2810,616.32,2.962
2811,616.41,2.959
2812,616.49,2.957
2813,616.57,2.954
2814,616.66,2.951
2815,616.74,2.949
2816,616.83,2.946
2817,616.91,2.944
2818,616.99,2.941
2819,617.07,2.938
2820,617.16,2.936
2821,617.24,2.933
2822,617.33,2.931
2823,617.41,2.928
2824,617.49,2.925
2825,617.58,2.923
2826,617.66,2.920
2827,617.74,2.918
2828,617.83,2.915
2829,617.91,2.912
2830,618.00,2.910
2831,618.08,2.907
2832,618.16,2.904
2833,618.24,2.902
2834,618.32,2.899
2835,618.41,2.896
2836,618.50,2.894
2837,618.58,2.891
2838,618.66,2.889
2839,618.75,2.886
2840,618.83,2.883
2841,618.91,2.881
2842,619.00,2.878
2843,619.08,2.875
2844,619.17,2.873
2845,619.24,2.870
2846,619.33,2.867
2847,619.41,2.865
2848,619.50,2.862
2849,619.58,2.860
2850,619.66,2.857
2851,619.75,2.854
2852,619.83,2.852
2853,619.91,2.849
2854,620.00,2.846
2855,620.08,2.843
2856,620.17,2.841
2857,620.25,2.838
2858,620.33,2.835
2859,620.42,2.833
2860,620.49,2.830
2861,620.58,2.827
2862,620.67,2.825
2863,620.75,2.822
2864,620.83,2.819
2865,620.92,2.817
2866,621.00,2.814
2867,621.08,2.811
2868,621.16,2.809
2869,621.25,2.806
2870,621.33,2.803
2871,621.42,2.800
2872,621.50,2.798
2873,621.58,2.795
2874,621.67,2.792
2875,621.76,2.789
2876,621.83,2.787
2877,621.92,2.784
2878,622.00,2.781
2879,622.08,2.778
2880,622.17,2.776
2881,622.25,2.773
2882,622.34,2.770
2883,622.43,2.768
2884,622.50,2.765
2885,622.58,2.762
2886,622.67,2.759
2887,622.75,2.757
2888,622.84,2.754
2889,622.92,2.751
2890,623.00,2.748
2891,623.09,2.745
2892,623.17,2.743
2893,623.26,2.740
2894,623.34,2.737
2895,623.42,2.734
2896,623.50,2.732
2897,623.59,2.729
2898,623.68,2.726
2899,623.76,2.723
2900,623.84,2.720
2901,623.91,2.718
2902,624.00,2.715
2903,624.09,2.712
2904,624.17,2.709
2905,624.26,2.706
2906,624.34,2.704
2907,624.42,2.701
2908,624.51,2.698
2909,624.59,2.695
2910,624.67,2.693
2911,624.76,2.690
2912,624.84,2.687
2913,624.92,2.684
2914,625.00,2.681
2915,625.09,2.679
2916,625.18,2.676
2917,625.26,2.673
2918,625.34,2.670
2919,625.42,2.667
2920,625.51,2.665
2921,625.59,2.662
2922,625.68,2.659
2923,625.76,2.656
2924,625.84,2.653
2925,625.92,2.651
2926,626.01,2.648
2927,626.10,2.645
2928,626.18,2.642
2929,626.26,2.639
2930,626.34,2.636
2931,626.43,2.634
2932,626.52,2.631
2933,626.60,2.628
2934,626.67,2.625
2935,626.76,2.622
2936,626.85,2.619
2937,626.93,2.617
2938,627.01,2.614
2939,627.09,2.611
2940,627.17,2.608
2941,627.26,2.605
2942,627.35,2.602
2943,627.43,2.599
2944,627.52,2.597
2945,627.60,2.594
2946,627.68,2.591
2947,627.76,2.588
2948,627.84,2.585
2949,627.93,2.582
2950,628.02,2.579
2951,628.10,2.576
2952,628.18,2.573
2953,628.27,2.570
2954,628.35,2.567
2955,628.43,2.564
2956,628.52,2.562
2957,628.60,2.559
2958,628.68,2.556
2959,628.76,2.553
2960,628.85,2.550
2961,628.94,2.547
2962,629.02,2.544
2963,629.10,2.541
2964,629.18,2.538
2965,629.26,2.535
2966,629.35,2.532
2967,629.43,2.529
2968,629.52,2.526
2969,629.60,2.523
2970,629.68,2.520
2971,629.77,2.517
2972,629.85,2.514
2973,629.93,2.511
2974,630.01,2.508
2975,630.10,2.505
2976,630.19,2.502
2977,630.26,2.499
2978,630.35,2.496
2979,630.44,2.493
2980,630.53,2.490
2981,630.60,2.487
2982,630.68,2.484
2983,630.77,2.481
2984,630.85,2.478
2985,630.94,2.476
2986,631.02,2.473
2987,631.10,2.470
2988,631.19,2.467
2989,631.27,2.464
2990,631.35,2.461
2991,631.43,2.458
2992,631.52,2.455
2993,631.60,2.452
2994,631.69,2.449
2995,631.77,2.446
2996,631.85,2.443
2997,631.94,2.440
2998,632.02,2.437
2999,632.11,2.434
3000,632.19,2.431
3001,632.27,2.428
3002,632.35,2.424
3003,632.44,2.421
3004,632.52,2.418
3005,632.61,2.415
3006,632.69,2.412
3007,632.77,2.409
3008,632.85,2.406
3009,632.94,2.403
3010,633.03,2.400
3011,633.11,2.397
3012,633.19,2.394
3013,633.27,2.391
3014,633.36,2.388
3015,633.44,2.385
3016,633.52,2.382
3017,633.61,2.379
3018,633.69,2.376
3019,633.77,2.373
3020,633.86,2.370
3021,633.95,2.366
3022,634.03,2.363
3023,634.11,2.360
3024,634.19,2.357
3025,634.28,2.354
3026,634.36,2.351
3027,634.44,2.348
3028,634.52,2.345
3029,634.61,2.342
3030,634.70,2.339
3031,634.78,2.336
3032,634.86,2.332
3033,634.94,2.329
3034,635.02,2.326
3035,635.11,2.323
3036,635.19,2.320
3037,635.28,2.317
3038,635.36,2.314
3039,635.45,2.311
3040,635.53,2.308
3041,635.61,2.305
3042,635.69,2.301
3043,635.78,2.298
3044,635.87,2.295
3045,635.94,2.292
3046,636.03,2.289
3047,636.11,2.286
3048,636.20,2.283
3049,636.29,2.280
3050,636.36,2.277
3051,636.45,2.273
3052,636.53,2.270
3053,636.61,2.267
3054,636.70,2.264
3055,636.78,2.261
3056,636.86,2.258
3057,636.95,2.255
3058,637.03,2.251
3059,637.12,2.248
3060,637.20,2.245
3061,637.28,2.242
3062,637.36,2.239
3063,637.45,2.235
3064,637.54,2.232
3065,637.62,2.229
3066,637.70,2.226
3067,637.78,2.223
3068,637.86,2.220
3069,637.95,2.216
3070,638.03,2.213
3071,638.11,2.210
3072,638.20,2.207
3073,638.29,2.204
3074,638.37,2.200
3075,638.45,2.197
3076,638.53,2.194
3077,638.62,2.191
3078,638.70,2.188
3079,638.78,2.184
3080,638.86,2.181
3081,638.94,2.178
3082,639.03,2.175
3083,639.12,2.172
3084,639.20,2.169
3085,639.28,2.165
3086,639.36,2.162
3087,639.45,2.159
3088,639.54,2.156
3089,639.62,2.153
3090,639.71,2.149
3091,639.78,2.146
3092,639.86,2.143
3093,639.95,2.140
3094,640.04,2.136
3095,640.12,2.133
3096,640.20,2.130
3097,640.28,2.127
3098,640.37,2.123
3099,640.45,2.120
3100,640.54,2.117
3101,640.62,2.114
3102,640.70,2.111
3103,640.79,2.107
3104,640.87,2.104
3105,640.95,2.101
3106,641.04,2.098
3107,641.12,2.094
3108,641.20,2.091
3109,641.29,2.088
3110,641.38,2.085
3111,641.46,2.081
3112,641.54,2.078
3113,641.62,2.075
3114,641.70,2.072
3115,641.79,2.068
3116,641.88,2.065
3117,641.96,2.062
3118,642.04,2.059
3119,642.12,2.055
3120,642.21,2.052
3121,642.29,2.049
3122,642.38,2.046
3123,642.46,2.042
3124,642.54,2.039
3125,642.62,2.036
3126,642.71,2.033
3127,642.79,2.029
3128,642.87,2.026
3129,642.96,2.023
3130,643.04,2.019
3131,643.12,2.016
3132,643.21,2.013
3133,643.29,2.010
3134,643.38,2.006
3135,643.46,2.003
3136,643.54,2.000
3137,643.63,1.997
3138,643.70,1.993
3139,643.79,1.990
3140,643.88,1.987
3141,643.96,1.984
3142,644.05,1.980
3143,644.13,1.977
3144,644.21,1.974
3145,644.29,1.971
3146,644.37,1.968
3147,644.46,1.964
3148,644.54,1.961
3149,644.63,1.958
3150,644.71,1.954
3151,644.79,1.951
3152,644.88,1.948
3153,644.96,1.945
3154,645.04,1.941
3155,645.13,1.938
3156,645.21,1.935
3157,645.30,1.932
3158,645.38,1.928
3159,645.46,1.925
3160,645.55,1.922
3161,645.63,1.919
3162,645.71,1.915
3163,645.79,1.912
3164,645.88,1.909
3165,645.97,1.905
3166,646.05,1.902
3167,646.13,1.899
3168,646.21,1.896
3169,646.30,1.892
3170,646.38,1.889
3171,646.46,1.886
3172,646.55,1.882
3173,646.63,1.879
3174,646.72,1.876
3175,646.81,1.873
3176,646.88,1.869
3177,646.96,1.866
3178,647.05,1.863
3179,647.13,1.860
3180,647.22,1.856
3181,647.30,1.853
3182,647.39,1.850
3183,647.47,1.847
3184,647.55,1.843
3185,647.64,1.840
3186,647.72,1.837
3187,647.80,1.834
3188,647.88,1.830
3189,647.97,1.827
3190,648.05,1.824
3191,648.14,1.821
3192,648.22,1.817
3193,648.30,1.814
3194,648.38,1.811
3195,648.47,1.808
3196,648.55,1.805
3197,648.63,1.801
3198,648.71,1.798
3199,648.80,1.795
3200,648.89,1.792
3201,648.97,1.789
3202,649.06,1.785
3203,649.14,1.782
3204,649.22,1.779
3205,649.30,1.776
3206,649.39,1.773
3207,649.47,1.769
3208,649.55,1.766
3209,649.63,1.763
3210,649.72,1.760
3211,649.81,1.757
3212,649.89,1.754
3213,649.97,1.751
3214,650.05,1.747
3215,650.14,1.744
3216,650.23,1.741
3217,650.31,1.738
3218,650.39,1.735
3219,650.47,1.732
3220,650.55,1.729
3221,650.64,1.725
3222,650.72,1.722
3223,650.81,1.719
3224,650.89,1.716
3225,650.97,1.713
3226,651.05,1.710
3227,651.14,1.707
3228,651.23,1.704
3229,651.31,1.701
3230,651.38,1.698
3231,651.47,1.695
3232,651.56,1.692
3233,651.64,1.689
3234,651.73,1.686
3235,651.81,1.683
3236,651.89,1.680
3237,651.98,1.677
3238,652.06,1.674
3239,652.15,1.671
3240,652.22,1.668
3241,652.30,1.665
3242,652.39,1.662
3243,652.48,1.659
3244,652.57,1.656
3245,652.65,1.653
3246,652.72,1.650
3247,652.80,1.647
3248,652.89,1.644
3249,652.98,1.641
3250,653.07,1.638
3251,653.15,1.635
3252,653.22,1.632
3253,653.30,1.629
3254,653.40,1.626
3255,653.48,1.623
3256,653.56,1.620
3257,653.65,1.617
3258,653.72,1.614
3259,653.81,1.611
3260,653.90,1.609
3261,653.99,1.606
3262,654.07,1.603
3263,654.14,1.600
3264,654.22,1.597
3265,654.31,1.595
3266,654.40,1.592
3267,654.48,1.589
3268,654.56,1.586
3269,654.65,1.583
3270,654.73,1.581
3271,654.81,1.578
3272,654.90,1.575
3273,654.98,1.572
3274,655.07,1.570
3275,655.15,1.567
3276,655.23,1.564
3277,655.32,1.561
3278,655.40,1.559
3279,655.48,1.556
3280,655.56,1.553
3281,655.64,1.550
3282,655.73,1.548
3283,655.82,1.545
3284,655.90,1.542
3285,655.98,1.540
3286,656.06,1.537
3287,656.15,1.534
3288,656.23,1.532
3289,656.32,1.529
3290,656.40,1.527
3291,656.48,1.524
3292,656.57,1.521
3293,656.66,1.519
3294,656.74,1.516
3295,656.82,1.514
3296,656.90,1.511
3297,656.98,1.509
3298,657.07,1.506
3299,657.16,1.504
3300,657.23,1.501
3301,657.32,1.499
3302,657.40,1.496
3303,657.49,1.494
3304,657.57,1.491
3305,657.65,1.489
3306,657.74,1.486
3307,657.82,1.484
3308,657.91,1.481
3309,657.99,1.479
3310,658.07,1.477
3311,658.15,1.474
3312,658.23,1.472
3313,658.32,1.469
3314,658.41,1.467
3315,658.49,1.464
3316,658.57,1.462
3317,658.65,1.460
3318,658.74,1.457
3319,658.82,1.455
3320,658.90,1.453
3321,658.99,1.450
3322,659.08,1.448
3323,659.16,1.446
3324,659.24,1.443
3325,659.32,1.441
3326,659.40,1.439
3327,659.49,1.437
3328,659.58,1.434
3329,659.66,1.432
3330,659.74,1.430
3331,659.82,1.428
3332,659.91,1.426
3333,659.99,1.423
3334,660.08,1.421
3335,660.15,1.419
3336,660.24,1.417
3337,660.33,1.415
3338,660.41,1.412
3339,660.49,1.410
3340,660.57,1.408
3341,660.65,1.406
3342,660.74,1.404
3343,660.83,1.402
3344,660.91,1.400
3345,660.99,1.398
3346,661.08,1.396
3347,661.16,1.394
3348,661.24,1.392
3349,661.33,1.390
3350,661.41,1.387
3351,661.49,1.385
3352,661.58,1.383
3353,661.66,1.381
3354,661.74,1.380
3355,661.83,1.378
3356,661.92,1.376
3357,661.99,1.374
3358,662.08,1.372
3359,662.16,1.370
3360,662.25,1.368
3361,662.33,1.366
3362,662.41,1.364
3363,662.49,1.362
3364,662.58,1.361
3365,662.67,1.359
3366,662.74,1.357
3367,662.82,1.355
3368,662.91,1.353
3369,663.00,1.351
3370,663.08,1.350
3371,663.16,1.348
3372,663.24,1.346
3373,663.32,1.344
3374,663.41,1.343
3375,663.50,1.341
3376,663.58,1.339
3377,663.66,1.337
3378,663.75,1.336
3379,663.83,1.334
3380,663.92,1.332
3381,664.00,1.331
3382,664.08,1.329
3383,664.17,1.327
3384,664.25,1.326
3385,664.33,1.324
3386,664.41,1.322
3387,664.50,1.321
3388,664.58,1.319
3389,664.67,1.318
3390,664.75,1.316
3391,664.83,1.314
3392,664.92,1.313
3393,665.00,1.311
3394,665.09,1.310
3395,665.17,1.308
3396,665.25,1.307
3397,665.34,1.305
3398,665.42,1.304
3399,665.50,1.302
3400,665.59,1.301
3401,665.67,1.299
3402,665.75,1.298
3403,665.83,1.296
3404,665.92,1.295
3405,666.00,1.294
3406,666.08,1.292
3407,666.16,1.291
3408,666.26,1.289
3409,666.33,1.288
3410,666.42,1.287
3411,666.51,1.285
3412,666.59,1.284
3413,666.67,1.283
3414,666.75,1.281
3415,666.84,1.280
3416,666.93,1.279
3417,667.00,1.277
3418,667.08,1.276
3419,667.17,1.275
3420,667.26,1.273
3421,667.34,1.272
3422,667.42,1.271
3423,667.51,1.269
3424,667.59,1.268
3425,667.67,1.267
3426,667.76,1.266
3427,667.84,1.265
3428,667.92,1.263
3429,668.01,1.262
3430,668.09,1.261
3431,668.17,1.260
3432,668.26,1.259
3433,668.34,1.258
3434,668.42,1.256
3435,668.51,1.255
3436,668.59,1.254
3437,668.67,1.253
3438,668.76,1.252
3439,668.84,1.251
3440,668.92,1.250
3441,669.01,1.249
3442,669.10,1.248
3443,669.18,1.247
3444,669.25,1.246
3445,669.34,1.245
3446,669.43,1.244
3447,669.51,1.243
3448,669.59,1.242
3449,669.67,1.241
3450,669.76,1.240
3451,669.84,1.239
3452,669.93,1.238
3453,670.00,1.237
3454,670.09,1.236
3455,670.18,1.235
3456,670.26,1.234
3457,670.35,1.233
3458,670.43,1.232
3459,670.51,1.231
3460,670.59,1.230
3461,670.68,1.229
3462,670.76,1.228
3463,670.85,1.228
3464,670.93,1.227
3465,671.01,1.226
3466,671.10,1.225
3467,671.18,1.224
3468,671.26,1.223
3469,671.34,1.222
3470,671.43,1.222
3471,671.52,1.221
3472,671.60,1.220
3473,671.68,1.219
3474,671.76,1.218
3475,671.84,1.217
3476,671.93,1.217
3477,672.02,1.216
3478,672.10,1.215
3479,672.18,1.214
3480,672.26,1.214
3481,672.35,1.213
3482,672.44,1.212
3483,672.52,1.211
3484,672.60,1.211
3485,672.68,1.210
3486,672.76,1.209
3487,672.85,1.209
3488,672.94,1.208
3489,673.02,1.207
3490,673.10,1.207
3491,673.19,1.206
3492,673.27,1.205
3493,673.35,1.205
3494,673.43,1.204
3495,673.52,1.203
3496,673.60,1.203
3497,673.68,1.202
3498,673.77,1.201
3499,673.85,1.201
3500,673.93,1.200
3501,674.01,1.199
3502,674.10,1.199
3503,674.18,1.198
3504,674.27,1.198
3505,674.35,1.197
3506,674.43,1.196
3507,674.52,1.196
3508,674.61,1.195
3509,674.68,1.195
3510,674.77,1.194
3511,674.85,1.193
3512,674.94,1.193
3513,675.02,1.192
3514,675.10,1.192
3515,675.19,1.191
3516,675.27,1.191
3517,675.36,1.190
3518,675.44,1.190
3519,675.52,1.189
3520,675.61,1.189
3521,675.69,1.188
3522,675.77,1.188
3523,675.85,1.187
3524,675.94,1.187
3525,676.02,1.186
3526,676.10,1.185
3527,676.19,1.185
3528,676.28,1.184
3529,676.35,1.184
3530,676.43,1.184
3531,676.52,1.183
3532,676.61,1.183
3533,676.69,1.182
3534,676.78,1.182
3535,676.85,1.181
3536,676.94,1.181
3537,677.02,1.180
3538,677.11,1.180
3539,677.19,1.179
3540,677.28,1.179
3541,677.36,1.178
3542,677.44,1.178
3543,677.53,1.178
3544,677.60,1.177
3545,677.69,1.177
3546,677.77,1.176
3547,677.86,1.176
3548,677.94,1.175
3549,678.03,1.175
3550,678.11,1.175
3551,678.20,1.174
3552,678.28,1.174
3553,678.36,1.173
3554,678.44,1.173
3555,678.52,1.173
3556,678.61,1.172
3557,678.70,1.172
3558,678.78,1.171
3559,678.86,1.171
3560,678.94,1.171
3561,679.03,1.170
3562,679.11,1.170
3563,679.19,1.170
3564,679.28,1.169
3565,679.37,1.169
3566,679.45,1.168
3567,679.53,1.168
3568,679.61,1.168
3569,679.70,1.167
3570,679.78,1.167
3571,679.86,1.167
3572,679.94,1.166
3573,680.03,1.166
3574,680.12,1.166
3575,680.20,1.165
3576,680.28,1.165
3577,680.36,1.165
3578,680.44,1.164
3579,680.53,1.164
3580,680.62,1.163
3581,680.70,1.163
3582,680.78,1.163
3583,680.87,1.162
3584,680.95,1.162
3585,681.03,1.162
3586,681.11,1.161
3587,681.20,1.161
3588,681.28,1.161
3589,681.37,1.160
3590,681.44,1.160
3591,681.53,1.160
3592,681.62,1.159
3593,681.71,1.159
3594,681.79,1.159
3595,681.86,1.158
3596,681.94,1.158
3597,682.03,1.158
3598,682.12,1.157
3599,682.20,1.157
3600,682.29,1.157
3601,682.36,1.157
3602,682.45,1.156
3603,682.53,1.156
3604,682.62,1.156
3605,682.71,1.155
3606,682.78,1.155
3607,682.87,1.155
3608,682.95,1.154
3609,683.03,1.154
3610,683.12,1.154
3611,683.20,1.154
3612,683.28,1.153
3613,683.37,1.153
3614,683.45,1.153
3615,683.53,1.152
3616,683.62,1.152
3617,683.71,1.152
3618,683.79,1.151
3619,683.87,1.151
3620,683.95,1.151
3621,684.04,1.151
3622,684.12,1.150
3623,684.20,1.150
3624,684.29,1.150
3625,684.37,1.149
3626,684.45,1.149
3627,684.54,1.149
3628,684.62,1.149
3629,684.71,1.148
3630,684.79,1.148
3631,684.87,1.148
3632,684.96,1.147
3633,685.05,1.147
3634,685.12,1.147
3635,685.20,1.147
3636,685.29,1.146
3637,685.37,1.146
3638,685.46,1.146
3639,685.54,1.145
3640,685.62,1.145
3641,685.71,1.145
3642,685.79,1.145
3643,685.87,1.144
3644,685.96,1.144
3645,686.04,1.144
3646,686.13,1.143
3647,686.21,1.143
3648,686.29,1.143
3649,686.37,1.143
3650,686.46,1.142
3651,686.55,1.142
3652,686.63,1.142
3653,686.71,1.142
3654,686.79,1.141
3655,686.87,1.141
3656,686.96,1.141
3657,687.05,1.140
3658,687.13,1.140
3659,687.21,1.140
3660,687.29,1.140
3661,687.38,1.139
3662,687.46,1.139
3663,687.54,1.139
3664,687.63,1.139
3665,687.71,1.138
3666,687.80,1.138
3667,687.88,1.138
3668,687.96,1.138
3669,688.05,1.137
3670,688.13,1.137
3671,688.21,1.137
3672,688.29,1.136
3673,688.37,1.136
3674,688.46,1.136
3675,688.55,1.136
3676,688.63,1.135
3677,688.71,1.135
3678,688.79,1.135
3679,688.88,1.135
3680,688.96,1.134
3681,689.04,1.134
3682,689.13,1.134
3683,689.21,1.134
3684,689.29,1.133
3685,689.38,1.133
3686,689.47,1.133
3687,689.55,1.133
3688,689.63,1.132
3689,689.71,1.132
3690,689.80,1.132
3691,689.88,1.132
3692,689.97,1.131
3693,690.05,1.131
3694,690.13,1.131
3695,690.21,1.131
3696,690.31,1.130
3697,690.38,1.130
3698,690.47,1.130
3699,690.55,1.130
3700,690.64,1.129
3701,690.72,1.129
3702,690.80,1.129
3703,690.88,1.129
3704,690.97,1.128
3705,691.06,1.128
3706,691.14,1.128
3707,691.22,1.128
3708,691.29,1.127
3709,691.38,1.127
3710,691.48,1.127
3711,691.56,1.127
3712,691.64,1.126
3713,691.71,1.126
3714,691.80,1.126
3715,691.89,1.126
3716,691.98,1.125
3717,692.05,1.125
3718,692.13,1.125
3719,692.22,1.125
3720,692.31,1.124
3721,692.39,1.124
3722,692.47,1.124
3723,692.55,1.124
3724,692.63,1.123
3725,692.72,1.123
3726,692.81,1.123
3727,692.89,1.123
3728,692.97,1.122
3729,693.05,1.122
3730,693.14,1.122
3731,693.22,1.122
3732,693.31,1.121
3733,693.39,1.121
3734,693.47,1.121
3735,693.55,1.121
3736,693.64,1.120
3737,693.72,1.120
3738,693.80,1.120
3739,693.89,1.120
3740,693.97,1.119
3741,694.06,1.119
3742,694.14,1.119
3743,694.22,1.119
3744,694.31,1.118
3745,694.39,1.118
3746,694.47,1.118
3747,694.56,1.118
3748,694.63,1.118
3749,694.72,1.117
3750,694.81,1.117
3751,694.90,1.117
3752,694.98,1.117
3753,695.06,1.116
3754,695.14,1.116
3755,695.23,1.116
3756,695.31,1.116
3757,695.39,1.115
3758,695.47,1.115
3759,695.56,1.115
3760,695.65,1.115
3761,695.73,1.114
3762,695.80,1.114
3763,695.89,1.114
3764,695.98,1.114
3765,696.06,1.113
3766,696.15,1.113
3767,696.23,1.113
3768,696.31,1.112
3769,696.39,1.112
3770,696.47,1.112
3771,696.56,1.112
3772,696.65,1.111
3773,696.73,1.111
3774,696.81,1.111
3775,696.89,1.111
3776,696.98,1.110
3777,697.06,1.110
3778,697.15,1.110
3779,697.23,1.110
3780,697.32,1.109
3781,697.40,1.109
3782,697.48,1.109
3783,697.57,1.109
3784,697.64,1.108
3785,697.73,1.108
3786,697.81,1.108
3787,697.89,1.108
3788,697.98,1.108
3789,698.06,1.107
3790,698.14,1.107
3791,698.23,1.107
3792,698.31,1.107
3793,698.40,1.107
3794,698.48,1.106
3795,698.56,1.106
3796,698.65,1.106
3797,698.73,1.106
3798,698.82,1.105
3799,698.90,1.105
3800,698.98,1.105
3801,699.06,1.105
3802,699.15,1.104
3803,699.24,1.104
3804,699.32,1.104
3805,699.40,1.104
3806,699.48,1.103
3807,699.56,1.103
3808,699.65,1.103
3809,699.74,1.103
3810,699.82,1.103
3811,699.90,1.102
3812,699.98,1.102
3813,700.07,1.102
3814,700.16,1.102
3815,700.23,1.101
3816,700.31,1.101
3817,700.40,1.101
3818,700.49,1.101
3819,700.57,1.100
3820,700.65,1.100
3821,700.73,1.100
3822,700.82,1.100
3823,700.90,1.099
3824,700.98,1.099
3825,701.07,1.099
3826,701.15,1.099
3827,701.24,1.099
3828,701.32,1.098
3829,701.40,1.098
3830,701.48,1.098
3831,701.57,1.098
3832,701.65,1.097
3833,701.74,1.097
3834,701.82,1.097
3835,701.90,1.097
3836,701.98,1.096
3837,702.06,1.096
3838,702.15,1.096
3839,702.24,1.096
3840,702.32,1.095
3841,702.41,1.095
3842,702.48,1.095
3843,702.56,1.095
3844,702.65,1.095
3845,702.74,1.094
3846,702.83,1.094
3847,702.90,1.094
3848,702.99,1.094
3849,703.07,1.093
3850,703.15,1.093
3851,703.23,1.093
3852,703.32,1.093
3853,703.40,1.093
3854,703.48,1.092
3855,703.57,1.092
3856,703.65,1.092
3857,703.73,1.092
3858,703.82,1.091
3859,703.90,1.091
3860,703.99,1.091
3861,704.07,1.091
3862,704.15,1.091
3863,704.23,1.090
3864,704.32,1.090
3865,704.40,1.090
3866,704.48,1.090
3867,704.57,1.089
3868,704.65,1.089
3869,704.74,1.089
3870,704.82,1.089
3871,704.90,1.088
3872,704.98,1.088
3873,705.07,1.088
3874,705.15,1.088
3875,705.24,1.087
3876,705.32,1.087
3877,705.40,1.087
3878,705.48,1.087
3879,705.57,1.087
3880,705.65,1.086
3881,705.73,1.086
3882,705.82,1.086
3883,705.90,1.086
3884,705.98,1.085
3885,706.07,1.085
3886,706.15,1.085
3887,706.24,1.085
3888,706.32,1.085
3889,706.40,1.084
3890,706.49,1.084
3891,706.56,1.084
3892,706.65,1.084
3893,706.74,1.083
3894,706.82,1.083
3895,706.90,1.083
3896,706.98,1.083
3897,707.06,1.083
3898,707.15,1.082
3899,707.24,1.082
3900,707.32,1.082
3901,707.40,1.082
3902,707.49,1.081
3903,707.57,1.081
3904,707.65,1.081
3905,707.73,1.081
3906,707.82,1.081
3907,707.90,1.080
3908,707.98,1.080
3909,708.06,1.080
3910,708.15,1.080
3911,708.23,1.080
3912,708.32,1.079
3913,708.40,1.079
3914,708.48,1.079
3915,708.57,1.079
3916,708.66,1.078
3917,708.74,1.078
3918,708.81,1.078
3919,708.90,1.078
3920,708.99,1.078
3921,709.07,1.077
3922,709.15,1.077
3923,709.23,1.077
3924,709.32,1.077
3925,709.41,1.077
3926,709.48,1.076
3927,709.56,1.076
3928,709.65,1.076
3929,709.74,1.076
3930,709.82,1.075
3931,709.90,1.075
3932,709.98,1.075
3933,710.07,1.075
3934,710.15,1.075
3935,710.24,1.074
3936,710.32,1.074
3937,710.40,1.074
3938,710.49,1.074
3939,710.57,1.073
3940,710.65,1.073
3941,710.73,1.073
3942,710.82,1.073
3943,710.91,1.073
3944,710.98,1.072
3945,711.07,1.072
3946,711.15,1.072
3947,711.24,1.072
3948,711.32,1.072
3949,711.40,1.071
3950,711.48,1.071
3951,711.57,1.071
3952,711.66,1.071
3953,711.74,1.070
3954,711.82,1.070
3955,711.90,1.070
3956,711.98,1.070
3957,712.07,1.070
3958,712.15,1.069
3959,712.23,1.069
3960,712.31,1.069
3961,712.40,1.069
3962,712.49,1.068
3963,712.57,1.068
3964,712.65,1.068
3965,712.73,1.068
3966,712.82,1.068
3967,712.90,1.067
3968,712.99,1.067
3969,713.07,1.067
3970,713.15,1.067
3971,713.23,1.066
3972,713.32,1.066
3973,713.40,1.066
3974,713.49,1.066
3975,713.57,1.066
3976,713.65,1.065
3977,713.73,1.065
3978,713.82,1.065
3979,713.91,1.065
3980,713.98,1.065
3981,714.06,1.064
3982,714.15,1.064
3983,714.24,1.064
3984,714.31,1.064
3985,714.40,1.063
3986,714.49,1.063
3987,714.57,1.063
3988,714.65,1.063
3989,714.73,1.063
3990,714.81,1.062
3991,714.90,1.062
3992,714.99,1.062
3993,715.07,1.062
3994,715.15,1.062
3995,715.23,1.061
3996,715.31,1.061
3997,715.40,1.061
3998,715.49,1.061
3999,715.57,1.061
4000,715.64,1.060
4001,715.73,1.060
4002,715.82,1.060
4003,715.91,1.060
4004,715.99,1.059
4005,716.06,1.059
4006,716.15,1.059
4007,716.24,1.059
4008,716.32,1.059
4009,716.40,1.058
4010,716.48,1.058
4011,716.56,1.058
4012,716.65,1.058
4013,716.73,1.058
4014,716.82,1.057
4015,716.90,1.057
4016,716.98,1.057
4017,717.07,1.057
4018,717.15,1.057
4019,717.24,1.056
4020,717.32,1.056
4021,717.40,1.056
4022,717.48,1.056
4023,717.57,1.056
4024,717.65,1.055
4025,717.73,1.055
4026,717.82,1.055
4027,717.90,1.055
4028,717.99,1.055
4029,718.07,1.054
4030,718.15,1.054
4031,718.24,1.054
4032,718.32,1.054
4033,718.40,1.054
4034,718.48,1.053
4035,718.57,1.053
4036,718.66,1.053
4037,718.74,1.053
4038,718.82,1.052
4039,718.90,1.052
4040,718.99,1.052
4041,719.07,1.052
4042,719.15,1.052
4043,719.24,1.051
4044,719.32,1.051
4045,719.40,1.051
4046,719.49,1.051
4047,719.57,1.051
4048,719.65,1.050
4049,719.73,1.050
4050,719.81,1.050
4051,719.90,1.050
4052,719.99,1.050
4053,720.07,1.049
4054,720.15,1.049
4055,720.23,1.049
4056,720.31,1.049
4057,720.40,1.048
4058,720.49,1.048
4059,720.57,1.048
4060,720.65,1.048
4061,720.73,1.048
4062,720.81,1.047
4063,720.91,1.047
4064,720.99,1.047
4065,721.07,1.047
4066,721.15,1.047
4067,721.23,1.046
4068,721.31,1.046
4069,721.40,1.046
4070,721.49,1.046
4071,721.57,1.046
4072,721.65,1.045
4073,721.73,1.045
4074,721.82,1.045
4075,721.90,1.045
4076,721.98,1.045
4077,722.07,1.044
4078,722.16,1.044
4079,722.24,1.044
4080,722.32,1.044
4081,722.40,1.044
4082,722.49,1.043
4083,722.57,1.043
4084,722.65,1.043
4085,722.73,1.043
4086,722.82,1.043
4087,722.90,1.042
4088,722.99,1.042
4089,723.07,1.042
4090,723.15,1.042
4091,723.24,1.042
4092,723.32,1.041
4093,723.40,1.041
4094,723.49,1.041
4095,723.57,1.041
4096,723.65,1.041
4097,723.74,1.040
4098,723.82,1.040
4099,723.90,1.040
4100,723.99,1.040
4101,724.07,1.040
4102,724.15,1.039
4103,724.24,1.039
4104,724.32,1.039
4105,724.40,1.039
4106,724.48,1.039
4107,724.57,1.038
4108,724.65,1.038
4109,724.74,1.038
4110,724.81,1.038
4111,724.90,1.038
4112,724.98,1.037
4113,725.07,1.037
4114,725.15,1.037
4115,725.24,1.037
4116,725.32,1.037
4117,725.40,1.036
4118,725.49,1.036
4119,725.57,1.036
4120,725.65,1.036
4121,725.73,1.036
4122,725.81,1.035
4123,725.90,1.035
4124,725.98,1.035
4125,726.07,1.035
4126,726.15,1.034
4127,726.23,1.034
4128,726.32,1.034
4129,726.40,1.034
4130,726.49,1.034
4131,726.57,1.034
4132,726.65,1.033
4133,726.74,1.033
4134,726.82,1.033
4135,726.91,1.033
4136,726.98,1.033
4137,727.07,1.032
4138,727.16,1.032
4139,727.24,1.032
4140,727.32,1.032
4141,727.40,1.032
4142,727.48,1.031
4143,727.57,1.031
4144,727.65,1.031
4145,727.74,1.031
4146,727.82,1.031
4147,727.91,1.030
4148,727.99,1.030
4149,728.06,1.030
4150,728.15,1.030
4151,728.24,1.030
4152,728.32,1.029
4153,728.40,1.029
4154,728.48,1.029
4155,728.57,1.029
4156,728.65,1.029
4157,728.73,1.028
4158,728.82,1.028
4159,728.90,1.028
4160,728.98,1.028
4161,729.07,1.028
4162,729.15,1.027
4163,729.23,1.027
4164,729.32,1.027
4165,729.40,1.027
4166,729.48,1.027
4167,729.57,1.027
4168,729.65,1.026
4169,729.74,1.026
4170,729.82,1.026
4171,729.89,1.026
4172,729.98,1.026
4173,730.07,1.025
4174,730.16,1.025
4175,730.23,1.025
4176,730.32,1.025
4177,730.40,1.025
4178,730.48,1.025
4179,730.57,1.024
4180,730.65,1.024
4181,730.73,1.024
4182,730.82,1.024
4183,730.90,1.024
4184,730.98,1.023
4185,731.07,1.023
4186,731.15,1.023
4187,731.23,1.023
4188,731.32,1.023
4189,731.40,1.022
4190,731.48,1.022
4191,731.56,1.022
4192,731.66,1.022
4193,731.73,1.022
4194,731.82,1.021
4195,731.90,1.021
4196,731.99,1.021
4197,732.07,1.021
4198,732.15,1.021
4199,732.23,1.020
4200,732.32,1.020
4201,732.40,1.020
4202,732.48,1.020
4203,732.57,1.020
4204,732.65,1.020
4205,732.74,1.019
4206,732.82,1.019
4207,732.90,1.019
4208,732.99,1.019
4209,733.07,1.019
4210,733.15,1.018
4211,733.23,1.018
4212,733.32,1.018
4213,733.40,1.018
4214,733.48,1.018
4215,733.57,1.018
4216,733.65,1.017
4217,733.74,1.017
4218,733.82,1.017
4219,733.90,1.017
4220,733.98,1.017
4221,734.06,1.016
4222,734.15,1.016
4223,734.24,1.016
4224,734.32,1.016
4225,734.40,1.016
4226,734.48,1.015
4227,734.56,1.015
4228,734.65,1.015
4229,734.74,1.015
4230,734.82,1.015
4231,734.90,1.014
4232,734.99,1.014
4233,735.07,1.014
4234,735.15,1.014
4235,735.23,1.014
4236,735.32,1.014
4237,735.41,1.013
4238,735.49,1.013
4239,735.56,1.013
4240,735.65,1.013
4241,735.74,1.013
4242,735.82,1.012
4243,735.90,1.012
4244,735.98,1.012
4245,736.06,1.012
4246,736.15,1.012
4247,736.24,1.012
4248,736.32,1.011
4249,736.40,1.011
4250,736.48,1.011
4251,736.57,1.011
4252,736.65,1.011
4253,736.73,1.011
4254,736.82,1.010
4255,736.90,1.010
4256,736.98,1.010
4257,737.06,1.010
4258,737.15,1.010
4259,737.24,1.010
4260,737.32,1.009
4261,737.40,1.009
4262,737.49,1.009
4263,737.57,1.009
4264,737.65,1.009
4265,737.74,1.009
4266,737.82,1.008
4267,737.90,1.008
4268,737.99,1.008
4269,738.07,1.008
4270,738.15,1.008
4271,738.24,1.008
4272,738.32,1.007
4273,738.40,1.007
4274,738.48,1.007
4275,738.56,1.007
4276,738.65,1.007
4277,738.73,1.007
4278,738.82,1.006
4279,738.90,1.006
4280,738.99,1.006
4281,739.07,1.006
4282,739.16,1.006
4283,739.24,1.005
4284,739.32,1.005
4285,739.40,1.005
4286,739.48,1.005
4287,739.57,1.005
4288,739.65,1.004
4289,739.74,1.004
4290,739.82,1.004
4291,739.90,1.004
4292,739.98,1.004
4293,740.06,1.004
4294,740.15,1.003
4295,740.24,1.003
4296,740.32,1.003
4297,740.40,1.003
4298,740.49,1.003
4299,740.57,1.002
4300,740.65,1.002
4301,740.73,1.002
4302,740.82,1.002
4303,740.91,1.002
4304,740.98,1.002
4305,741.06,1.001
4306,741.16,1.001
4307,741.24,1.001
4308,741.32,1.001
4309,741.40,1.001
4310,741.48,1.001
4311,741.57,1.000
4312,741.65,1.000
4313,741.73,1.000
4314,741.82,1.000
4315,741.90,1.000
4316,741.98,1.000
4317,742.07,1.000
4318,742.15,0.999
4319,742.24,0.999
4320,742.32,0.999
4321,742.40,0.999
4322,742.48,0.999
4323,742.57,0.999
4324,742.66,0.998
4325,742.74,0.998
4326,742.81,0.998
4327,742.90,0.998
4328,742.99,0.998
4329,743.07,0.998
4330,743.15,0.997
4331,743.23,0.997
4332,743.31,0.997
4333,743.40,0.997
4334,743.48,0.997
4335,743.57,0.997
4336,743.65,0.996
4337,743.74,0.996
4338,743.82,0.996
4339,743.90,0.996
4340,743.98,0.996
4341,744.06,0.996
4342,744.15,0.995
4343,744.23,0.995
4344,744.32,0.995
4345,744.40,0.995
4346,744.48,0.995
4347,744.57,0.995
4348,744.65,0.995
4349,744.73,0.994
4350,744.82,0.994
4351,744.90,0.994
4352,744.98,0.994
4353,745.07,0.994
4354,745.15,0.994
4355,745.23,0.993
4356,745.32,0.993
4357,745.40,0.993
4358,745.49,0.993
4359,745.57,0.993
4360,745.65,0.993
4361,745.74,0.992
4362,745.82,0.992
4363,745.90,0.992
4364,745.98,0.992
4365,746.07,0.992
4366,746.16,0.992
4367,746.24,0.991
4368,746.31,0.991
4369,746.40,0.991
4370,746.49,0.991
4371,746.57,0.991
4372,746.66,0.991
4373,746.74,0.991
4374,746.82,0.990
4375,746.90,0.990
4376,746.99,0.990
4377,747.07,0.990
4378,747.15,0.990
4379,747.24,0.990
4380,747.32,0.989
4381,747.40,0.989
4382,747.48,0.989
4383,747.57,0.989
4384,747.66,0.989
4385,747.74,0.989
4386,747.82,0.988
4387,747.90,0.988
4388,747.98,0.988
4389,748.07,0.988
4390,748.16,0.988
4391,748.24,0.988
4392,748.32,0.988
4393,748.40,0.987
4394,748.49,0.987
4395,748.57,0.987
4396,748.66,0.987
4397,748.73,0.987
4398,748.81,0.987
4399,748.90,0.986
4400,748.99,0.986
4401,749.07,0.986
4402,749.15,0.986
4403,749.23,0.986
4404,749.31,0.986
4405,749.41,0.985
4406,749.49,0.985
4407,749.57,0.985
4408,749.65,0.985
4409,749.73,0.985
4410,749.82,0.985
4411,749.90,0.985
4412,749.98,0.984
4413,750.07,0.984
4414,750.15,0.984
4415,750.23,0.984
4416,750.32,0.984
4417,750.40,0.984
4418,750.48,0.984
4419,750.56,0.983
4420,750.65,0.983
4421,750.74,0.983
4422,750.82,0.983
4423,750.90,0.983
4424,750.98,0.983
4425,751.07,0.983
4426,751.15,0.982
4427,751.23,0.982
4428,751.32,0.982
4429,751.40,0.982
4430,751.49,0.982
4431,751.57,0.982
4432,751.65,0.982
4433,751.73,0.981
4434,751.82,0.981
4435,751.91,0.981
4436,751.99,0.981
4437,752.07,0.981
4438,752.15,0.981
4439,752.23,0.980
4440,752.32,0.980
4441,752.40,0.980
4442,752.49,0.980
4443,752.57,0.980
4444,752.66,0.980
4445,752.73,0.979
4446,752.82,0.979
4447,752.90,0.979
4448,752.99,0.979
4449,753.07,0.979
4450,753.15,0.979
4451,753.23,0.979
4452,753.32,0.978
4453,753.40,0.978
4454,753.48,0.978
4455,753.57,0.978
4456,753.66,0.978
4457,753.73,0.978
4458,753.81,0.978
4459,753.90,0.978
4460,753.99,0.977
4461,754.07,0.977
4462,754.15,0.977
4463,754.23,0.977
4464,754.32,0.977
4465,754.40,0.977
4466,754.48,0.977
4467,754.57,0.976
4468,754.65,0.976
4469,754.73,0.976
4470,754.82,0.976
4471,754.90,0.976
4472,754.98,0.976
4473,755.07,0.976
4474,755.15,0.975
4475,755.24,0.975
4476,755.32,0.975
4477,755.40,0.975
4478,755.49,0.975
4479,755.57,0.975
4480,755.66,0.975
4481,755.74,0.974
4482,755.82,0.974
4483,755.90,0.974
4484,755.99,0.974
4485,756.07,0.974
4486,756.15,0.974
4487,756.24,0.974
4488,756.32,0.973
4489,756.40,0.973
4490,756.48,0.973
4491,756.56,0.973
4492,756.65,0.973
4493,756.73,0.973
4494,756.81,0.973
4495,756.90,0.972
4496,756.98,0.972
4497,757.06,0.972
4498,757.15,0.972
4499,757.23,0.972
4500,757.32,0.972
4501,757.41,0.972
4502,757.49,0.971
4503,757.57,0.971
4504,757.65,0.971
4505,757.73,0.971
4506,757.82,0.971
4507,757.90,0.971
4508,757.99,0.971
4509,758.07,0.970
4510,758.15,0.970
4511,758.23,0.970
4512,758.32,0.970
4513,758.40,0.970
4514,758.49,0.970
4515,758.57,0.970
4516,758.65,0.969
4517,758.73,0.969
4518,758.82,0.969
4519,758.90,0.969
4520,758.98,0.969
4521,759.07,0.969
4522,759.15,0.969
4523,759.24,0.969
4524,759.32,0.968
4525,759.40,0.968
4526,759.49,0.968
4527,759.57,0.968
4528,759.65,0.968
4529,759.74,0.968
4530,759.82,0.968
4531,759.90,0.968
4532,759.99,0.968
4533,760.07,0.967
4534,760.15,0.967
4535,760.24,0.967
4536,760.32,0.967
4537,760.40,0.967
4538,760.49,0.967
4539,760.57,0.967
4540,760.65,0.966
4541,760.73,0.966
4542,760.81,0.966
4543,760.90,0.966
4544,760.98,0.966
4545,761.06,0.966
4546,761.15,0.966
4547,761.23,0.965
4548,761.31,0.965
4549,761.40,0.965
4550,761.49,0.965
4551,761.57,0.965
4552,761.65,0.965
4553,761.73,0.965
4554,761.82,0.964
4555,761.91,0.964
4556,761.99,0.964
4557,762.07,0.964
4558,762.15,0.964
4559,762.24,0.964
4560,762.32,0.964
4561,762.41,0.963
4562,762.49,0.963
4563,762.56,0.963
4564,762.65,0.963
4565,762.74,0.963
4566,762.82,0.963
4567,762.90,0.963
4568,762.98,0.963
4569,763.07,0.962
4570,763.15,0.962
4571,763.23,0.962
4572,763.32,0.962
4573,763.40,0.962
4574,763.48,0.962
4575,763.57,0.962
4576,763.65,0.962
4577,763.73,0.962
4578,763.82,0.962
4579,763.90,0.961
4580,763.99,0.961
4581,764.07,0.961
4582,764.15,0.961
4583,764.23,0.961
4584,764.31,0.961
4585,764.41,0.961
4586,764.49,0.961
4587,764.57,0.961
4588,764.65,0.960
4589,764.73,0.960
4590,764.82,0.960
4591,764.91,0.960
4592,764.99,0.960
4593,765.07,0.960
4594,765.15,0.960
4595,765.23,0.960
4596,765.32,0.959
4597,765.40,0.959
4598,765.49,0.959
4599,765.57,0.959
4600,765.66,0.959
4601,765.74,0.959
4602,765.82,0.958
4603,765.90,0.958
4604,765.98,0.958
4605,766.07,0.958
4606,766.15,0.958
4607,766.23,0.958
4608,766.32,0.958
4609,766.40,0.958
4610,766.48,0.958
4611,766.57,0.957
4612,766.65,0.957
4613,766.74,0.957
4614,766.82,0.957
4615,766.90,0.957
4616,766.99,0.957
4617,767.07,0.957
4618,767.15,0.956
4619,767.23,0.956
4620,767.32,0.956
4621,767.41,0.956
4622,767.48,0.956
4623,767.56,0.956
4624,767.65,0.956
4625,767.74,0.956
4626,767.82,0.955
4627,767.90,0.955
4628,767.98,0.955
4629,768.06,0.955
4630,768.16,0.955
4631,768.24,0.955
4632,768.32,0.955
4633,768.40,0.955
4634,768.48,0.954
4635,768.57,0.954
4636,768.65,0.954
4637,768.74,0.954
4638,768.82,0.954
4639,768.90,0.954
4640,768.99,0.954
4641,769.07,0.954
4642,769.16,0.954
4643,769.24,0.953
4644,769.32,0.953
4645,769.40,0.953
4646,769.48,0.953
4647,769.57,0.953
4648,769.65,0.953
4649,769.74,0.953
4650,769.82,0.953
4651,769.90,0.952
4652,769.98,0.952
4653,770.07,0.952
4654,770.15,0.952
4655,770.24,0.952
4656,770.32,0.952
4657,770.40,0.952
4658,770.49,0.952
4659,770.57,0.951
4660,770.65,0.951
4661,770.73,0.951
4662,770.82,0.951
4663,770.90,0.951
4664,770.99,0.951
4665,771.07,0.951
4666,771.15,0.951
4667,771.24,0.951
4668,771.32,0.950
4669,771.40,0.950
4670,771.49,0.950
4671,771.57,0.950
4672,771.65,0.950
4673,771.74,0.950
4674,771.82,0.950
4675,771.90,0.950
4676,771.99,0.950
4677,772.07,0.949
4678,772.15,0.949
4679,772.23,0.949
4680,772.32,0.949
4681,772.40,0.949
4682,772.49,0.949
4683,772.57,0.949
4684,772.66,0.949
4685,772.73,0.949
4686,772.82,0.949
4687,772.90,0.949
4688,772.99,0.948
4689,773.07,0.948
4690,773.16,0.948
4691,773.24,0.948
4692,773.32,0.948
4693,773.41,0.948
4694,773.49,0.948
4695,773.57,0.948
4696,773.65,0.948
4697,773.73,0.947
4698,773.81,0.947
4699,773.90,0.947
4700,773.99,0.947
4701,774.07,0.947
4702,774.16,0.947
4703,774.23,0.947
4704,774.31,0.947
4705,774.40,0.947
4706,774.49,0.946
4707,774.57,0.946
4708,774.65,0.946
4709,774.73,0.946
4710,774.82,0.946
4711,774.90,0.946
4712,774.98,0.946
4713,775.07,0.946
4714,775.15,0.945
4715,775.23,0.945
4716,775.32,0.945
4717,775.40,0.945
4718,775.49,0.945
4719,775.57,0.945
4720,775.65,0.945
4721,775.74,0.945
4722,775.82,0.944
4723,775.90,0.944
4724,775.99,0.944
4725,776.07,0.944
4726,776.15,0.944
4727,776.24,0.944
4728,776.32,0.944
4729,776.40,0.944
4730,776.49,0.943
4731,776.58,0.943
4732,776.65,0.943
4733,776.73,0.943
4734,776.82,0.943
4735,776.91,0.943
4736,777.00,0.943
4737,777.07,0.943
4738,777.15,0.943
4739,777.24,0.942
4740,777.32,0.942
4741,777.40,0.942
4742,777.48,0.942
4743,777.57,0.942
4744,777.65,0.942
4745,777.74,0.942
4746,777.82,0.942
4747,777.90,0.942
4748,777.99,0.941
4749,778.07,0.941
4750,778.16,0.941
4751,778.24,0.941
4752,778.32,0.941
4753,778.40,0.941
4754,778.48,0.941
4755,778.57,0.941
4756,778.65,0.941
4757,778.73,0.940
4758,778.82,0.940
4759,778.90,0.940
4760,778.98,0.940
4761,779.07,0.940
4762,779.15,0.940
4763,779.23,0.940
4764,779.32,0.940
4765,779.40,0.940
4766,779.49,0.939
4767,779.57,0.939
4768,779.65,0.939
4769,779.73,0.939
4770,779.82,0.939
4771,779.90,0.939
4772,779.99,0.939
4773,780.07,0.939
4774,780.15,0.939
4775,780.23,0.939
4776,780.32,0.939
4777,780.41,0.939
4778,780.48,0.938
4779,780.56,0.938
4780,780.65,0.938
4781,780.74,0.938
4782,780.82,0.938
4783,780.90,0.938
4784,780.99,0.938
4785,781.07,0.938
4786,781.15,0.938
4787,781.24,0.938
4788,781.32,0.937
4789,781.40,0.937
4790,781.49,0.937
4791,781.57,0.937
4792,781.65,0.937
4793,781.74,0.937
4794,781.82,0.937
4795,781.90,0.936
4796,781.98,0.936
4797,782.07,0.936
4798,782.16,0.936
4799,782.23,0.936
4800,782.32,0.936
4801,782.40,0.936
4802,782.48,0.936
4803,782.57,0.936
4804,782.65,0.935
4805,782.74,0.935
4806,782.82,0.935
4807,782.90,0.935
4808,782.98,0.935
4809,783.07,0.935
4810,783.15,0.935
4811,783.23,0.935
4812,783.32,0.935
4813,783.40,0.935
4814,783.48,0.935
4815,783.57,0.934
4816,783.65,0.934
4817,783.73,0.934
4818,783.82,0.934
4819,783.90,0.934
4820,783.99,0.934
4821,784.07,0.934
4822,784.15,0.934
4823,784.24,0.934
4824,784.32,0.934
4825,784.40,0.933
4826,784.49,0.933
4827,784.57,0.933
4828,784.65,0.933
4829,784.74,0.933
4830,784.82,0.933
4831,784.90,0.933
4832,784.99,0.933
4833,785.07,0.933
4834,785.15,0.933
4835,785.23,0.932
4836,785.32,0.932
4837,785.40,0.932
4838,785.48,0.932
4839,785.56,0.932
4840,785.65,0.932
4841,785.74,0.932
4842,785.82,0.932
4843,785.90,0.932
4844,785.98,0.932
4845,786.07,0.932
4846,786.16,0.931
4847,786.24,0.931
4848,786.32,0.931
4849,786.40,0.931
4850,786.49,0.931
4851,786.57,0.931
4852,786.65,0.931
4853,786.73,0.931
4854,786.82,0.931
4855,786.90,0.930
4856,786.98,0.930
4857,787.07,0.930
4858,787.15,0.930
4859,787.23,0.930
4860,787.32,0.930
4861,787.41,0.930
4862,787.49,0.930
4863,787.57,0.929
4864,787.65,0.929
4865,787.73,0.929
4866,787.82,0.929
4867,787.90,0.929
4868,787.98,0.929
4869,788.07,0.929
4870,788.15,0.929
4871,788.24,0.929
4872,788.32,0.929
4873,788.41,0.929
4874,788.49,0.928
4875,788.57,0.928
4876,788.65,0.928
4877,788.74,0.928
4878,788.82,0.928
4879,788.90,0.928
4880,788.99,0.928
4881,789.07,0.928
4882,789.15,0.928
4883,789.23,0.927
4884,789.32,0.927
4885,789.40,0.927
4886,789.49,0.927
4887,789.57,0.927
4888,789.65,0.927
4889,789.73,0.927
4890,789.82,0.927
4891,789.91,0.927
4892,789.99,0.927
4893,790.07,0.927
4894,790.15,0.926
4895,790.23,0.926
4896,790.32,0.926
4897,790.40,0.926
4898,790.49,0.926
4899,790.57,0.926
4900,790.65,0.926
4901,790.73,0.926
4902,790.82,0.926
4903,790.91,0.926
4904,790.99,0.925
4905,791.07,0.925
4906,791.15,0.925
4907,791.23,0.925
4908,791.32,0.925
4909,791.40,0.925
4910,791.48,0.925
4911,791.57,0.925
4912,791.65,0.925
4913,791.74,0.924
4914,791.82,0.924
4915,791.90,0.924
4916,791.99,0.924
4917,792.07,0.924
4918,792.16,0.924
4919,792.24,0.924
4920,792.32,0.924
4921,792.40,0.924
4922,792.49,0.924
4923,792.57,0.923
4924,792.65,0.923
4925,792.74,0.923
4926,792.82,0.923
4927,792.90,0.923
4928,792.99,0.923
4929,793.07,0.923
4930,793.15,0.923
4931,793.23,0.923
4932,793.32,0.923
4933,793.41,0.923
4934,793.48,0.922
4935,793.56,0.922
4936,793.65,0.922
4937,793.74,0.922
4938,793.83,0.922
4939,793.90,0.922
4940,793.98,0.922
4941,794.07,0.922
4942,794.16,0.922
4943,794.24,0.922
4944,794.32,0.921
4945,794.40,0.921
4946,794.49,0.921
4947,794.58,0.921
4948,794.65,0.921
4949,794.74,0.921
4950,794.82,0.921
4951,794.90,0.921
4952,794.98,0.921
4953,795.07,0.921
4954,795.16,0.921
4955,795.24,0.921
4956,795.32,0.920
4957,795.40,0.920
4958,795.48,0.920
4959,795.57,0.920
4960,795.66,0.920
4961,795.74,0.920
4962,795.82,0.920
4963,795.90,0.920
4964,795.98,0.920
4965,796.06,0.920
4966,796.16,0.920
4967,796.24,0.920
4968,796.32,0.919
4969,796.40,0.919
4970,796.49,0.919
4971,796.57,0.919
4972,796.65,0.919
4973,796.74,0.919
4974,796.82,0.919
4975,796.90,0.919
4976,796.99,0.918
4977,797.07,0.918
4978,797.15,0.918
4979,797.24,0.918
4980,797.32,0.918
4981,797.40,0.918
4982,797.48,0.918
4983,797.57,0.918
4984,797.66,0.918
4985,797.74,0.917
4986,797.81,0.917
4987,797.90,0.917
4988,797.99,0.917
4989,798.07,0.917
4990,798.15,0.917
4991,798.24,0.917
4992,798.32,0.917
4993,798.40,0.917
4994,798.49,0.917
4995,798.57,0.917
4996,798.66,0.917
4997,798.74,0.916
4998,798.81,0.916
4999,798.90,0.916
5000,798.98,0.916
5001,799.07,0.916
5002,799.15,0.916
5003,799.24,0.916
5004,799.32,0.916
5005,799.40,0.916
5006,799.48,0.916
5007,799.57,0.916
5008,799.65,0.916
5009,799.74,0.916
5010,799.82,0.915
5011,799.90,0.915
5012,799.99,0.915
5013,800.07,0.915
5014,800.15,0.915
5015,800.24,0.915
5016,800.32,0.915
5017,800.40,0.915
5018,800.49,0.915
5019,800.57,0.915
5020,800.65,0.914
5021,800.74,0.914
5022,800.82,0.914
5023,800.90,0.914
5024,800.98,0.914
5025,801.07,0.914
5026,801.16,0.914
5027,801.23,0.914
5028,801.32,0.914
5029,801.41,0.914
5030,801.49,0.913
5031,801.57,0.913
5032,801.66,0.913
5033,801.74,0.913
5034,801.82,0.913
5035,801.90,0.913
5036,801.99,0.913
5037,802.07,0.913
5038,802.15,0.913
5039,802.23,0.913
5040,802.32,0.912
5041,802.41,0.912
5042,802.49,0.912
5043,802.57,0.912
5044,802.65,0.912
5045,802.74,0.912
5046,802.82,0.912
5047,802.91,0.912
5048,802.99,0.912
5049,803.07,0.912
5050,803.16,0.912
5051,803.24,0.911
5052,803.32,0.911
5053,803.40,0.911
5054,803.48,0.911
5055,803.57,0.911
5056,803.65,0.911
5057,803.73,0.911
5058,803.82,0.911
5059,803.90,0.911
5060,803.98,0.911
5061,804.07,0.910
5062,804.15,0.910
5063,804.23,0.910
5064,804.32,0.910
5065,804.40,0.910
5066,804.49,0.910
5067,804.57,0.910
5068,804.65,0.910
5069,804.74,0.910
5070,804.82,0.910
5071,804.90,0.910
5072,804.99,0.910
5073,805.08,0.909
5074,805.16,0.909
5075,805.23,0.909
5076,805.32,0.909
5077,805.41,0.909
5078,805.48,0.909
5079,805.57,0.909
5080,805.65,0.909
5081,805.74,0.909
5082,805.82,0.909
5083,805.90,0.909
5084,805.98,0.909
5085,806.07,0.908
5086,806.15,0.908
5087,806.24,0.908
5088,806.32,0.908
5089,806.41,0.908
5090,806.49,0.908
5091,806.57,0.908
5092,806.65,0.908
5093,806.74,0.908
5094,806.83,0.907
5095,806.90,0.907
5096,806.98,0.907
5097,807.07,0.907
5098,807.15,0.907
5099,807.23,0.907
5100,807.32,0.907
5101,807.40,0.907
5102,807.49,0.907
5103,807.57,0.907
5104,807.65,0.907
5105,807.74,0.907
5106,807.82,0.906
5107,807.90,0.906
5108,807.99,0.906
5109,808.07,0.906
5110,808.15,0.906
5111,808.23,0.906
5112,808.32,0.906
5113,808.41,0.906
5114,808.48,0.906
5115,808.57,0.906
5116,808.66,0.906
5117,808.74,0.905
5118,808.82,0.905
5119,808.91,0.905
5120,808.99,0.905
5121,809.07,0.905
5122,809.15,0.905
5123,809.24,0.905
5124,809.32,0.905
5125,809.40,0.905
5126,809.49,0.905
5127,809.57,0.904
5128,809.65,0.904
5129,809.74,0.904
5130,809.82,0.904
5131,809.90,0.904
5132,809.99,0.904
5133,810.07,0.904
5134,810.15,0.904
5135,810.24,0.904
5136,810.32,0.904
5137,810.41,0.904
5138,810.49,0.903
5139,810.57,0.903
5140,810.66,0.903
5141,810.74,0.903
5142,810.82,0.903
5143,810.91,0.903
5144,810.99,0.903
5145,811.08,0.903
5146,811.15,0.903
5147,811.23,0.903
5148,811.31,0.903
5149,811.40,0.903
5150,811.48,0.902
5151,811.56,0.902
5152,811.65,0.902
5153,811.74,0.902
5154,811.82,0.902
5155,811.90,0.902
5156,811.98,0.902
5157,812.07,0.902
5158,812.15,0.902
5159,812.23,0.902
5160,812.32,0.902
5161,812.41,0.902
5162,812.49,0.901
5163,812.56,0.901
5164,812.65,0.901
5165,812.74,0.901
5166,812.83,0.901
5167,812.90,0.901
5168,812.98,0.901
5169,813.07,0.901
5170,813.16,0.901
5171,813.24,0.901
5172,813.31,0.900
5173,813.40,0.900
5174,813.49,0.900
5175,813.57,0.900
5176,813.65,0.900
5177,813.74,0.900
5178,813.82,0.900
5179,813.90,0.900
5180,813.99,0.900
5181,814.07,0.900
5182,814.15,0.900
5183,814.24,0.900
5184,814.32,0.900
5185,814.41,0.899
5186,814.49,0.899
5187,814.57,0.899
5188,814.65,0.899
5189,814.74,0.899
5190,814.82,0.899
5191,814.91,0.899
5192,814.99,0.899
5193,815.07,0.899
5194,815.16,0.899
5195,815.23,0.899
5196,815.32,0.898
5197,815.40,0.898
5198,815.49,0.898
5199,815.57,0.898
5200,815.65,0.898
5201,815.74,0.898
5202,815.81,0.898
5203,815.90,0.898
5204,815.99,0.898
5205,816.07,0.898
5206,816.15,0.898
5207,816.24,0.897
5208,816.32,0.897
5209,816.40,0.897
5210,816.48,0.897
5211,816.57,0.897
5212,816.66,0.897
5213,816.74,0.897
5214,816.82,0.897
5215,816.90,0.897
5216,816.99,0.897
5217,817.07,0.897
5218,817.15,0.896
5219,817.24,0.896
5220,817.32,0.896
5221,817.40,0.896
5222,817.49,0.896
5223,817.57,0.896
5224,817.66,0.896
5225,817.74,0.896
5226,817.82,0.896
5227,817.91,0.896
5228,817.99,0.896
5229,818.07,0.896
5230,818.15,0.896
5231,818.24,0.895
5232,818.32,0.895
5233,818.40,0.895
5234,818.49,0.895
5235,818.57,0.895
5236,818.66,0.895
5237,818.74,0.895
5238,818.82,0.895
5239,818.91,0.895
5240,818.99,0.895
5241,819.07,0.895
5242,819.15,0.895
5243,819.23,0.894
5244,819.32,0.894
5245,819.40,0.894
5246,819.48,0.894
5247,819.57,0.894
5248,819.65,0.894
5249,819.74,0.894
5250,819.82,0.894
5251,819.90,0.894
5252,819.99,0.894
5253,820.07,0.894
5254,820.15,0.894
5255,820.24,0.893
5256,820.32,0.893
5257,820.40,0.893
5258,820.49,0.893
5259,820.57,0.893
5260,820.65,0.893
5261,820.74,0.893
5262,820.83,0.893
5263,820.90,0.893
5264,820.98,0.893
5265,821.07,0.893
5266,821.16,0.893
5267,821.24,0.893
5268,821.32,0.892
5269,821.40,0.892
5270,821.49,0.892
5271,821.57,0.892
5272,821.66,0.892
5273,821.74,0.892
5274,821.81,0.892
5275,821.90,0.892
5276,821.99,0.892
5277,822.07,0.892
5278,822.16,0.892
5279,822.23,0.891
5280,822.32,0.891
5281,822.41,0.891
5282,822.49,0.891
5283,822.57,0.891
5284,822.65,0.891
5285,822.74,0.891
5286,822.82,0.891
5287,822.90,0.891
5288,822.98,0.891
5289,823.07,0.891
5290,823.15,0.890
5291,823.24,0.890
5292,823.32,0.890
5293,823.40,0.890
5294,823.48,0.890
5295,823.57,0.890
5296,823.66,0.890
5297,823.74,0.890
5298,823.82,0.890
5299,823.90,0.890
5300,823.99,0.890
5301,824.07,0.890
5302,824.15,0.889
5303,824.23,0.889
5304,824.32,0.889
5305,824.40,0.889
5306,824.48,0.889
5307,824.57,0.889
5308,824.65,0.889
5309,824.74,0.889
5310,824.82,0.889
5311,824.90,0.889
5312,824.99,0.889
5313,825.07,0.888
5314,825.16,0.888
5315,825.24,0.888
5316,825.32,0.888
5317,825.41,0.888
5318,825.49,0.888
5319,825.57,0.888
5320,825.65,0.888
5321,825.74,0.888
5322,825.82,0.888
5323,825.91,0.888
5324,825.98,0.888
5325,826.07,0.888
5326,826.15,0.888
5327,826.24,0.887
5328,826.32,0.887
5329,826.40,0.887
5330,826.49,0.887
5331,826.57,0.887
5332,826.66,0.887
5333,826.74,0.887
5334,826.82,0.887
5335,826.90,0.887
5336,826.98,0.887
5337,827.07,0.887
5338,827.15,0.887
5339,827.24,0.886
5340,827.32,0.886
5341,827.40,0.886
5342,827.49,0.886
5343,827.58,0.886
5344,827.66,0.886
5345,827.74,0.886
5346,827.81,0.886
5347,827.90,0.886
5348,827.99,0.886
5349,828.07,0.886
5350,828.16,0.885
5351,828.23,0.885
5352,828.32,0.885
5353,828.41,0.885
5354,828.49,0.885
5355,828.57,0.885
5356,828.65,0.885
5357,828.74,0.885
5358,828.82,0.885
5359,828.91,0.885
5360,828.99,0.885
5361,829.06,0.885
5362,829.15,0.884
5363,829.24,0.884
5364,829.32,0.884
5365,829.40,0.884
5366,829.48,0.884
5367,829.57,0.884
5368,829.66,0.884
5369,829.74,0.884
5370,829.82,0.884
5371,829.91,0.884
5372,829.99,0.884
5373,830.07,0.884
5374,830.16,0.884
5375,830.24,0.884
5376,830.32,0.883
5377,830.41,0.883
5378,830.48,0.883
5379,830.56,0.883
5380,830.65,0.883
5381,830.74,0.883
5382,830.83,0.883
5383,830.91,0.883
5384,830.99,0.883
5385,831.07,0.883
5386,831.15,0.883
5387,831.24,0.883
5388,831.32,0.883
5389,831.40,0.882
5390,831.48,0.882
5391,831.57,0.882
5392,831.66,0.882
5393,831.74,0.882
5394,831.82,0.882
5395,831.90,0.882
5396,831.99,0.882
5397,832.07,0.882
5398,832.15,0.882
5399,832.24,0.882
5400,832.33,0.881
5401,832.40,0.881
5402,832.48,0.881
5403,832.57,0.881
5404,832.66,0.881
5405,832.74,0.881
5406,832.82,0.881
5407,832.91,0.881
5408,832.99,0.881
5409,833.07,0.881
5410,833.16,0.881
5411,833.24,0.880
5412,833.32,0.880
5413,833.40,0.880
5414,833.49,0.880
5415,833.57,0.880
5416,833.65,0.880
5417,833.73,0.880
5418,833.82,0.880
5419,833.91,0.880
5420,833.99,0.880
5421,834.07,0.880
5422,834.16,0.880
5423,834.24,0.880
5424,834.32,0.879
5425,834.41,0.879
5426,834.49,0.879
5427,834.57,0.879
5428,834.65,0.879
5429,834.74,0.879
5430,834.82,0.879
5431,834.90,0.879
5432,834.99,0.879
5433,835.07,0.879
5434,835.15,0.879
5435,835.24,0.879
5436,835.32,0.878
5437,835.40,0.878
5438,835.49,0.878
5439,835.57,0.878
5440,835.65,0.878
5441,835.73,0.878
5442,835.82,0.878
5443,835.90,0.878
5444,835.99,0.878
5445,836.07,0.878
5446,836.15,0.878
5447,836.24,0.878
5448,836.33,0.878
5449,836.40,0.877
5450,836.48,0.877
5451,836.57,0.877
5452,836.66,0.877
5453,836.74,0.877
5454,836.82,0.877
5455,836.90,0.877
5456,836.99,0.877
5457,837.08,0.877
5458,837.15,0.877
5459,837.24,0.877
5460,837.32,0.877
5461,837.40,0.877
5462,837.49,0.876
5463,837.57,0.876
5464,837.66,0.876
5465,837.74,0.876
5466,837.82,0.876
5467,837.91,0.876
5468,837.99,0.876
5469,838.07,0.876
5470,838.15,0.876
5471,838.24,0.876
5472,838.32,0.876
5473,838.40,0.876
5474,838.49,0.875
5475,838.57,0.875
5476,838.65,0.875
5477,838.73,0.875
5478,838.82,0.875
5479,838.90,0.875
5480,838.98,0.875
5481,839.07,0.875
5482,839.16,0.875
5483,839.23,0.875
5484,839.32,0.875
5485,839.41,0.875
5486,839.49,0.875
5487,839.57,0.874
5488,839.66,0.874
5489,839.74,0.874
5490,839.82,0.874
5491,839.90,0.874
5492,839.99,0.874
5493,840.07,0.874
5494,840.16,0.874
5495,840.24,0.874
5496,840.32,0.874
5497,840.41,0.874
5498,840.49,0.874
5499,840.57,0.873
5500,840.66,0.873
5501,840.74,0.873
5502,840.82,0.873
5503,840.91,0.873
5504,840.99,0.873
5505,841.07,0.873
5506,841.15,0.873
5507,841.24,0.873
5508,841.32,0.873
5509,841.41,0.873
5510,841.49,0.872
5511,841.57,0.872
5512,841.65,0.872
5513,841.74,0.872
5514,841.83,0.872
5515,841.90,0.872
5516,841.99,0.872
5517,842.07,0.872
5518,842.16,0.872
5519,842.24,0.872
5520,842.32,0.872
5521,842.40,0.872
5522,842.48,0.872
5523,842.57,0.872
5524,842.66,0.871
5525,842.74,0.871
5526,842.82,0.871
5527,842.90,0.871
5528,842.99,0.871
5529,843.07,0.871
5530,843.15,0.871
5531,843.23,0.871
5532,843.32,0.871
5533,843.41,0.871
5534,843.48,0.871
5535,843.56,0.871
5536,843.65,0.871
5537,843.74,0.870
5538,843.82,0.870
5539,843.90,0.870
5540,843.99,0.870
5541,844.07,0.870
5542,844.15,0.870
5543,844.24,0.870
5544,844.32,0.870
5545,844.41,0.870
5546,844.49,0.870
5547,844.57,0.870
5548,844.66,0.870
5549,844.74,0.870
5550,844.82,0.870
5551,844.91,0.869
5552,844.99,0.869
5553,845.07,0.869
5554,845.15,0.869
5555,845.24,0.869
5556,845.32,0.869
5557,845.41,0.869
5558,845.49,0.869
5559,845.57,0.869
5560,845.65,0.869
5561,845.74,0.869
5562,845.82,0.869
5563,845.90,0.869
5564,845.98,0.869
5565,846.07,0.869
5566,846.16,0.868
5567,846.24,0.868
5568,846.32,0.868
5569,846.40,0.868
5570,846.49,0.868
5571,846.58,0.868
5572,846.66,0.868
5573,846.73,0.868
5574,846.82,0.868
5575,846.91,0.868
5576,847.00,0.868
5577,847.07,0.868
5578,847.15,0.868
5579,847.24,0.867
5580,847.33,0.867
5581,847.41,0.867
5582,847.48,0.867
5583,847.57,0.867
5584,847.66,0.867
5585,847.74,0.867
5586,847.82,0.867
5587,847.90,0.867
5588,847.99,0.867
5589,848.07,0.867
5590,848.15,0.867
5591,848.24,0.866
5592,848.32,0.866
5593,848.40,0.866
5594,848.48,0.866
5595,848.57,0.866
5596,848.66,0.866
5597,848.74,0.866
5598,848.82,0.866
5599,848.91,0.866
5600,848.99,0.866
5601,849.07,0.866
5602,849.15,0.866
5603,849.24,0.866
5604,849.32,0.865
5605,849.40,0.865
5606,849.48,0.865
5607,849.57,0.865
5608,849.66,0.865
5609,849.74,0.865
5610,849.82,0.865
5611,849.90,0.865
5612,849.99,0.865
5613,850.07,0.865
5614,850.16,0.865
5615,850.24,0.865
5616,850.32,0.865
5617,850.41,0.864
5618,850.49,0.864
5619,850.57,0.864
5620,850.65,0.864
5621,850.74,0.864
5622,850.82,0.864
5623,850.90,0.864
5624,850.99,0.864
5625,851.07,0.864
5626,851.15,0.864
5627,851.24,0.864
5628,851.32,0.864
5629,851.40,0.863
5630,851.49,0.863
5631,851.57,0.863
5632,851.66,0.863
5633,851.73,0.863
5634,851.82,0.863
5635,851.91,0.863
5636,851.99,0.863
5637,852.07,0.863
5638,852.16,0.863
5639,852.24,0.863
5640,852.32,0.863
5641,852.40,0.863
5642,852.48,0.862
5643,852.57,0.862
5644,852.66,0.862
5645,852.74,0.862
5646,852.83,0.862
5647,852.90,0.862
5648,852.98,0.862
5649,853.07,0.862
5650,853.16,0.862
5651,853.24,0.862
5652,853.32,0.862
5653,853.40,0.862
5654,853.49,0.862
5655,853.57,0.862
5656,853.65,0.862
5657,853.74,0.861
5658,853.82,0.861
5659,853.90,0.861
5660,853.99,0.861
5661,854.07,0.861
5662,854.15,0.861
5663,854.24,0.861
5664,854.32,0.861
5665,854.40,0.861
5666,854.49,0.861
5667,854.58,0.861
5668,854.66,0.861
5669,854.74,0.861
5670,854.82,0.861
5671,854.91,0.860
5672,854.98,0.860
5673,855.07,0.860
5674,855.16,0.860
5675,855.24,0.860
5676,855.32,0.860
5677,855.40,0.860
5678,855.49,0.860
5679,855.58,0.860
5680,855.65,0.860
5681,855.74,0.860
5682,855.82,0.860
5683,855.91,0.859
5684,855.99,0.859
5685,856.07,0.859
5686,856.15,0.859
5687,856.23,0.859
5688,856.32,0.859
5689,856.41,0.859
5690,856.49,0.859
5691,856.57,0.859
5692,856.66,0.859
5693,856.74,0.859
5694,856.82,0.859
5695,856.91,0.858
5696,856.99,0.858
5697,857.07,0.858
5698,857.15,0.858
5699,857.24,0.858
5700,857.32,0.858
5701,857.40,0.858
5702,857.49,0.858
5703,857.57,0.858
5704,857.66,0.858
5705,857.74,0.858
5706,857.82,0.858
5707,857.91,0.858
5708,857.99,0.858
5709,858.07,0.857
5710,858.16,0.857
5711,858.25,0.857
5712,858.32,0.857
5713,858.40,0.857
5714,858.49,0.857
5715,858.57,0.857
5716,858.65,0.857
5717,858.73,0.857
5718,858.82,0.857
5719,858.91,0.857
5720,858.99,0.857
5721,859.07,0.857
5722,859.16,0.857
5723,859.24,0.856
5724,859.32,0.856
5725,859.40,0.856
5726,859.49,0.856
5727,859.57,0.856
5728,859.66,0.856
5729,859.74,0.856
5730,859.83,0.856
5731,859.91,0.856
5732,859.99,0.856
5733,860.07,0.856
5734,860.15,0.856
5735,860.24,0.856
5736,860.32,0.856
5737,860.40,0.856
5738,860.48,0.855
5739,860.57,0.855
5740,860.65,0.855
5741,860.74,0.855
5742,860.82,0.855
5743,860.90,0.855
5744,860.99,0.855
5745,861.07,0.855
5746,861.15,0.855
5747,861.24,0.855
5748,861.32,0.855
5749,861.40,0.855
5750,861.49,0.855
5751,861.57,0.854
5752,861.65,0.854
5753,861.74,0.854
5754,861.82,0.854
5755,861.90,0.854
5756,861.99,0.854
5757,862.08,0.854
5758,862.16,0.854
5759,862.24,0.854
5760,862.32,0.854
5761,862.41,0.854
5762,862.49,0.854
5763,862.57,0.854
5764,862.66,0.853
5765,862.74,0.853
5766,862.82,0.853
5767,862.90,0.853
5768,862.99,0.853
5769,863.07,0.853
5770,863.16,0.853
5771,863.24,0.853
5772,863.32,0.853
5773,863.40,0.853
5774,863.48,0.853
5775,863.57,0.853
5776,863.65,0.853
5777,863.74,0.853
5778,863.82,0.853
5779,863.90,0.852
5780,863.99,0.852
5781,864.07,0.852
5782,864.15,0.852
5783,864.24,0.852
5784,864.32,0.852
5785,864.40,0.852
5786,864.49,0.852
5787,864.58,0.852
5788,864.65,0.852
5789,864.74,0.852
5790,864.83,0.852
5791,864.91,0.852
5792,864.99,0.852
5793,865.08,0.851
5794,865.16,0.851
5795,865.24,0.851
5796,865.32,0.851
5797,865.41,0.851
5798,865.49,0.851
5799,865.57,0.851
5800,865.65,0.851
5801,865.74,0.851
5802,865.83,0.851
5803,865.91,0.851
5804,865.98,0.851
5805,866.07,0.851
5806,866.16,0.850
5807,866.24,0.850
5808,866.32,0.850
5809,866.41,0.850
5810,866.49,0.850
5811,866.58,0.850
5812,866.66,0.850
5813,866.74,0.850
5814,866.82,0.850
5815,866.91,0.850
5816,866.99,0.850
5817,867.07,0.850
5818,867.15,0.850
5819,867.24,0.849
5820,867.32,0.849
5821,867.40,0.849
5822,867.49,0.849
5823,867.57,0.849
5824,867.66,0.849
5825,867.74,0.849
5826,867.82,0.849
5827,867.91,0.849
5828,867.99,0.849
5829,868.08,0.849
5830,868.15,0.849
5831,868.24,0.849
5832,868.32,0.849
5833,868.40,0.849
5834,868.49,0.848
5835,868.58,0.848
5836,868.66,0.848
5837,868.73,0.848
5838,868.82,0.848
5839,868.91,0.848
5840,868.99,0.848
5841,869.07,0.848
5842,869.16,0.848
5843,869.24,0.848
5844,869.32,0.848
5845,869.40,0.848
5846,869.49,0.848
5847,869.57,0.848
5848,869.65,0.847
5849,869.74,0.847
5850,869.83,0.847
5851,869.91,0.847
5852,869.99,0.847
5853,870.07,0.847
5854,870.15,0.847
5855,870.23,0.847
5856,870.32,0.847
5857,870.41,0.847
5858,870.49,0.847
5859,870.57,0.847
5860,870.66,0.847
5861,870.74,0.847
5862,870.82,0.847
5863,870.91,0.846
5864,870.99,0.846
5865,871.07,0.846
5866,871.16,0.846
5867,871.25,0.846
5868,871.32,0.846
5869,871.40,0.846
5870,871.48,0.846
5871,871.57,0.846
5872,871.66,0.846
5873,871.74,0.846
5874,871.81,0.846
5875,871.90,0.846
5876,871.99,0.845
5877,872.07,0.845
5878,872.15,0.845
5879,872.23,0.845
5880,872.32,0.845
5881,872.41,0.845
5882,872.49,0.845
5883,872.57,0.845
5884,872.66,0.845
5885,872.74,0.845
5886,872.82,0.845
5887,872.91,0.845
5888,872.99,0.845
5889,873.07,0.844
5890,873.16,0.844
5891,873.24,0.844
5892,873.32,0.844
5893,873.41,0.844
5894,873.49,0.844
5895,873.57,0.844
5896,873.66,0.844
5897,873.74,0.844
5898,873.82,0.844
5899,873.91,0.844
5900,873.99,0.844
5901,874.07,0.844
5902,874.15,0.844
5903,874.24,0.844
5904,874.32,0.844
5905,874.41,0.843
5906,874.49,0.843
5907,874.57,0.843
5908,874.66,0.843
5909,874.74,0.843
5910,874.82,0.843
5911,874.90,0.843
5912,874.99,0.843
5913,875.07,0.843
5914,875.16,0.843
5915,875.24,0.843
5916,875.33,0.843
5917,875.41,0.843
5918,875.49,0.843
5919,875.57,0.842
5920,875.65,0.842
5921,875.74,0.842
5922,875.82,0.842
5923,875.90,0.842
5924,876.00,0.842
5925,876.07,0.842
5926,876.15,0.842
5927,876.24,0.842
5928,876.33,0.842
5929,876.40,0.842
5930,876.49,0.842
5931,876.57,0.842
5932,876.66,0.842
5933,876.74,0.842
5934,876.82,0.841
5935,876.90,0.841
5936,876.99,0.841
5937,877.08,0.841
5938,877.16,0.841
5939,877.24,0.841
5940,877.32,0.841
5941,877.40,0.841
5942,877.49,0.841
5943,877.57,0.841
5944,877.65,0.841
5945,877.74,0.841
5946,877.82,0.841
5947,877.91,0.841
5948,877.98,0.841
5949,878.07,0.840
5950,878.16,0.840
5951,878.24,0.840
5952,878.32,0.840
5953,878.41,0.840
5954,878.49,0.840
5955,878.57,0.840
5956,878.66,0.840
5957,878.74,0.840
5958,878.82,0.840
5959,878.91,0.840
5960,878.99,0.840
5961,879.07,0.840
5962,879.15,0.839
5963,879.24,0.839
5964,879.32,0.839
5965,879.40,0.839
5966,879.49,0.839
5967,879.57,0.839
5968,879.66,0.839
5969,879.74,0.839
5970,879.82,0.839
5971,879.91,0.839
5972,879.99,0.839
5973,880.07,0.839
5974,880.16,0.839
5975,880.24,0.839
5976,880.32,0.838
5977,880.41,0.838
5978,880.49,0.838
5979,880.57,0.838
5980,880.66,0.838
5981,880.74,0.838
5982,880.82,0.838
5983,880.91,0.838
5984,880.99,0.838
5985,881.07,0.838
5986,881.15,0.838
5987,881.24,0.838
5988,881.32,0.838
5989,881.40,0.838
5990,881.49,0.838
5991,881.57,0.837
5992,881.66,0.837
5993,881.74,0.837
5994,881.82,0.837
5995,881.91,0.837
5996,881.99,0.837
5997,882.07,0.837
5998,882.16,0.837
5999,882.24,0.837
6000,882.32,0.837
6001,882.40,0.837
6002,882.49,0.837
6003,882.58,0.837
6004,882.65,0.837
6005,882.74,0.836
6006,882.82,0.836
6007,882.91,0.836
6008,882.99,0.836
6009,883.07,0.836
6010,883.16,0.836
6011,883.24,0.836
6012,883.32,0.836
6013,883.40,0.836
6014,883.49,0.836
6015,883.58,0.836
6016,883.66,0.836
6017,883.74,0.836
6018,883.82,0.836
6019,883.90,0.836
6020,883.98,0.835
6021,884.07,0.835
6022,884.15,0.835
6023,884.24,0.835
6024,884.32,0.835
6025,884.41,0.835
6026,884.49,0.835
6027,884.57,0.835
6028,884.66,0.835
6029,884.74,0.835
6030,884.82,0.835
6031,884.91,0.835
6032,884.99,0.835
6033,885.08,0.835
6034,885.15,0.835
6035,885.24,0.835
6036,885.33,0.834
6037,885.41,0.834
6038,885.49,0.834
6039,885.58,0.834
6040,885.66,0.834
6041,885.74,0.834
6042,885.82,0.834
6043,885.91,0.834
6044,885.99,0.834
6045,886.07,0.834
6046,886.16,0.834
6047,886.24,0.834
6048,886.32,0.834
6049,886.40,0.834
6050,886.49,0.834
6051,886.58,0.833
6052,886.65,0.833
6053,886.74,0.833
6054,886.83,0.833
6055,886.91,0.833
6056,886.99,0.833
6057,887.07,0.833
6058,887.16,0.833
6059,887.24,0.833
6060,887.32,0.833
6061,887.41,0.833
6062,887.49,0.833
6063,887.57,0.833
6064,887.65,0.833
6065,887.74,0.833
6066,887.82,0.832
6067,887.90,0.832
6068,887.99,0.832
6069,888.08,0.832
6070,888.15,0.832
6071,888.24,0.832
6072,888.32,0.832
6073,888.41,0.832
6074,888.49,0.832
6075,888.57,0.832
6076,888.65,0.832
6077,888.74,0.832
6078,888.82,0.832
6079,888.91,0.832
6080,888.99,0.831
6081,889.07,0.831
6082,889.16,0.831
6083,889.24,0.831
6084,889.33,0.831
6085,889.41,0.831
6086,889.49,0.831
6087,889.57,0.831
6088,889.66,0.831
6089,889.75,0.831
6090,889.82,0.831
6091,889.90,0.831
6092,889.99,0.831
6093,890.08,0.831
6094,890.16,0.831
6095,890.25,0.830
6096,890.32,0.830
6097,890.40,0.830
6098,890.49,0.830
6099,890.58,0.830
6100,890.66,0.830
6101,890.74,0.830
6102,890.82,0.830
6103,890.91,0.830
6104,890.99,0.830
6105,891.07,0.830
6106,891.16,0.830
6107,891.24,0.830
6108,891.32,0.830
6109,891.40,0.830
6110,891.49,0.829
6111,891.57,0.829
6112,891.66,0.829
6113,891.74,0.829
6114,891.82,0.829
6115,891.90,0.829
6116,891.99,0.829
6117,892.07,0.829
6118,892.16,0.829
6119,892.24,0.829
6120,892.32,0.829
6121,892.41,0.829
6122,892.49,0.829
6123,892.57,0.829
6124,892.66,0.829
6125,892.74,0.829
6126,892.83,0.828
6127,892.91,0.828
6128,892.99,0.828
6129,893.07,0.828
6130,893.16,0.828
6131,893.24,0.828
6132,893.33,0.828
6133,893.41,0.828
6134,893.49,0.828
6135,893.58,0.828
6136,893.66,0.828
6137,893.74,0.828
6138,893.82,0.828
6139,893.90,0.828
6140,893.99,0.828
6141,894.07,0.828
6142,894.16,0.827
6143,894.24,0.827
6144,894.32,0.827
6145,894.40,0.827
6146,894.49,0.827
6147,894.58,0.827
6148,894.66,0.827
6149,894.73,0.827
6150,894.82,0.827
6151,894.91,0.827
6152,894.99,0.827
6153,895.07,0.827
6154,895.16,0.827
6155,895.24,0.827
6156,895.32,0.827
6157,895.41,0.826
6158,895.49,0.826
6159,895.57,0.826
6160,895.66,0.826
6161,895.75,0.826
6162,895.82,0.826
6163,895.90,0.826
6164,895.99,0.826
6165,896.08,0.826
6166,896.16,0.826
6167,896.24,0.826
6168,896.33,0.826
6169,896.40,0.826
6170,896.48,0.826
6171,896.57,0.826
6172,896.66,0.825
6173,896.75,0.825
6174,896.82,0.825
6175,896.90,0.825
6176,896.98,0.825
6177,897.07,0.825
6178,897.16,0.825
6179,897.25,0.825
6180,897.33,0.825
6181,897.41,0.825
6182,897.49,0.825
6183,897.57,0.825
6184,897.66,0.825
6185,897.74,0.825
6186,897.82,0.825
6187,897.91,0.825
6188,897.99,0.825
6189,898.07,0.824
6190,898.16,0.824
6191,898.24,0.824
6192,898.33,0.824
6193,898.41,0.824
6194,898.49,0.824
6195,898.58,0.824
6196,898.66,0.824
6197,898.74,0.824
6198,898.83,0.824
6199,898.90,0.824
6200,898.99,0.824
6201,899.08,0.824
6202,899.16,0.824
6203,899.24,0.824
6204,899.33,0.824
6205,899.41,0.824
6206,899.49,0.823
6207,899.58,0.823
6208,899.66,0.823
6209,899.74,0.823
6210,899.83,0.823
6211,899.91,0.823
6212,899.99,0.823
6213,900.07,0.823
6214,900.16,0.823
6215,900.24,0.823
6216,900.32,0.823
6217,900.41,0.823
6218,900.49,0.823
6219,900.58,0.823
6220,900.66,0.823
6221,900.74,0.822
6222,900.82,0.822
6223,900.91,0.822
6224,900.99,0.822
6225,901.07,0.822
6226,901.15,0.822
6227,901.24,0.822
6228,901.33,0.822
6229,901.41,0.822
6230,901.49,0.822
6231,901.57,0.822
6232,901.66,0.822
6233,901.74,0.822
6234,901.82,0.822
6235,901.91,0.822
6236,901.99,0.821
6237,902.07,0.821
6238,902.16,0.821
6239,902.24,0.821
6240,902.32,0.821
6241,902.41,0.821
6242,902.49,0.821
6243,902.58,0.821
6244,902.66,0.821
6245,902.74,0.821
6246,902.82,0.821
6247,902.91,0.821
6248,902.99,0.821
6249,903.08,0.821
6250,903.16,0.821
6251,903.24,0.821
6252,903.32,0.820
6253,903.40,0.820
6254,903.49,0.820
6255,903.57,0.820
6256,903.65,0.820
6257,903.74,0.820
6258,903.82,0.820
6259,903.90,0.820
6260,903.99,0.820
6261,904.08,0.820
6262,904.16,0.820
6263,904.24,0.820
6264,904.33,0.820
6265,904.41,0.820
6266,904.49,0.820
6267,904.58,0.819
6268,904.65,0.819
6269,904.74,0.819
6270,904.82,0.819
6271,904.91,0.819
6272,904.99,0.819
6273,905.07,0.819
6274,905.16,0.819
6275,905.24,0.819
6276,905.32,0.819
6277,905.41,0.819
6278,905.49,0.819
6279,905.57,0.819
6280,905.66,0.819
6281,905.74,0.819
6282,905.82,0.819
6283,905.91,0.819
6284,905.99,0.818
6285,906.07,0.818
6286,906.15,0.818
6287,906.24,0.818
6288,906.33,0.818
6289,906.41,0.818
6290,906.49,0.818
6291,906.57,0.818
6292,906.66,0.818
6293,906.75,0.818
6294,906.83,0.818
6295,906.91,0.818
6296,906.99,0.818
6297,907.07,0.818
6298,907.15,0.818
6299,907.24,0.818
6300,907.32,0.817
6301,907.41,0.817
6302,907.49,0.817
6303,907.57,0.817
6304,907.66,0.817
6305,907.74,0.817
6306,907.83,0.817
6307,907.91,0.817
6308,907.99,0.817
6309,908.08,0.817
6310,908.16,0.817
6311,908.24,0.817
6312,908.32,0.817
6313,908.40,0.817
6314,908.50,0.817
6315,908.57,0.817
6316,908.65,0.816
6317,908.74,0.816
6318,908.83,0.816
6319,908.91,0.816
6320,908.99,0.816
6321,909.08,0.816
6322,909.16,0.816
6323,909.24,0.816
6324,909.32,0.816
6325,909.41,0.816
6326,909.49,0.816
6327,909.58,0.816
6328,909.66,0.816
6329,909.74,0.816
6330,909.82,0.816
6331,909.91,0.816
6332,909.99,0.816
6333,910.07,0.816
6334,910.15,0.815
6335,910.24,0.815
6336,910.33,0.815
6337,910.41,0.815
6338,910.49,0.815
6339,910.57,0.815
6340,910.66,0.815
6341,910.75,0.815
6342,910.83,0.815
6343,910.90,0.815
6344,910.99,0.815
6345,911.08,0.815
6346,911.16,0.815
6347,911.24,0.815
6348,911.33,0.815
6349,911.41,0.815
6350,911.49,0.815
6351,911.58,0.814
6352,911.66,0.814
6353,911.74,0.814
6354,911.82,0.814
6355,911.91,0.814
6356,912.00,0.814
6357,912.07,0.814
6358,912.15,0.814
6359,912.24,0.814
6360,912.33,0.814
6361,912.41,0.814
6362,912.49,0.814
6363,912.58,0.814
6364,912.66,0.814
6365,912.74,0.814
6366,912.83,0.814
6367,912.91,0.813
6368,912.99,0.813
6369,913.07,0.813
6370,913.16,0.813
6371,913.24,0.813
6372,913.32,0.813
6373,913.40,0.813
6374,913.49,0.813
6375,913.57,0.813
6376,913.65,0.813
6377,913.74,0.813
6378,913.82,0.813
6379,913.91,0.813
6380,913.99,0.813
6381,914.07,0.813
6382,914.16,0.813
6383,914.24,0.813
6384,914.33,0.813
6385,914.41,0.812
6386,914.49,0.812
6387,914.57,0.812
6388,914.66,0.812
6389,914.74,0.812
6390,914.82,0.812
6391,914.91,0.812
6392,914.99,0.812
6393,915.07,0.812
6394,915.15,0.812
6395,915.24,0.812
6396,915.33,0.812
6397,915.41,0.812
6398,915.49,0.812
6399,915.58,0.812
6400,915.66,0.812
6401,915.74,0.812
6402,915.83,0.811
6403,915.91,0.811
6404,915.99,0.811
6405,916.07,0.811
6406,916.16,0.811
6407,916.25,0.811
6408,916.33,0.811
6409,916.40,0.811
6410,916.48,0.811
6411,916.58,0.811
6412,916.66,0.811
6413,916.74,0.811
6414,916.82,0.811
6415,916.90,0.811
6416,916.99,0.811
6417,917.08,0.811
6418,917.16,0.810
6419,917.24,0.810
6420,917.32,0.810
6421,917.41,0.810
6422,917.49,0.810
6423,917.57,0.810
6424,917.66,0.810
6425,917.74,0.810
6426,917.82,0.810
6427,917.91,0.810
6428,917.99,0.810
6429,918.07,0.810
6430,918.16,0.810
6431,918.24,0.810
6432,918.32,0.810
6433,918.41,0.810
6434,918.49,0.810
6435,918.58,0.810
6436,918.66,0.810
6437,918.74,0.809
6438,918.83,0.809
6439,918.91,0.809
6440,918.99,0.809
6441,919.07,0.809
6442,919.15,0.809
6443,919.24,0.809
6444,919.32,0.809
6445,919.41,0.809
6446,919.50,0.809
6447,919.58,0.809
6448,919.66,0.809
6449,919.74,0.809
6450,919.82,0.809
6451,919.91,0.809
6452,919.99,0.809
6453,920.07,0.809
6454,920.16,0.808
6455,920.24,0.808
6456,920.32,0.808
6457,920.41,0.808
6458,920.49,0.808
6459,920.57,0.808
6460,920.66,0.808
6461,920.74,0.808
6462,920.83,0.808
6463,920.91,0.808
6464,920.99,0.808
6465,921.08,0.808
6466,921.16,0.808
6467,921.24,0.808
6468,921.33,0.808
6469,921.41,0.808
6470,921.49,0.808
6471,921.58,0.808
6472,921.66,0.807
6473,921.74,0.807
6474,921.82,0.807
6475,921.90,0.807
6476,921.99,0.807
6477,922.08,0.807
6478,922.16,0.807
6479,922.25,0.807
6480,922.33,0.807
6481,922.41,0.807
6482,922.48,0.807
6483,922.57,0.807
6484,922.66,0.807
6485,922.74,0.807
6486,922.82,0.807
6487,922.91,0.807
6488,922.99,0.807
6489,923.07,0.807
6490,923.15,0.807
6491,923.24,0.806
6492,923.33,0.806
6493,923.41,0.806
6494,923.49,0.806
6495,923.58,0.806
6496,923.66,0.806
6497,923.74,0.806
6498,923.82,0.806
6499,923.91,0.806
6500,923.99,0.806
6501,924.07,0.806
6502,924.16,0.806
6503,924.24,0.806
6504,924.32,0.806
6505,924.41,0.806
6506,924.49,0.806
6507,924.57,0.806
6508,924.66,0.806
6509,924.74,0.806
6510,924.83,0.806
6511,924.91,0.805
6512,924.99,0.805
6513,925.07,0.805
6514,925.16,0.805
6515,925.24,0.805
6516,925.32,0.805
6517,925.40,0.805
6518,925.49,0.805
6519,925.57,0.805
6520,925.65,0.805
6521,925.74,0.805
6522,925.82,0.805
6523,925.90,0.805
6524,925.99,0.805
6525,926.07,0.805
6526,926.16,0.805
6527,926.24,0.804
6528,926.32,0.804
6529,926.41,0.804
6530,926.50,0.804
6531,926.58,0.804
6532,926.65,0.804
6533,926.74,0.804
6534,926.83,0.804
6535,926.91,0.804
6536,926.99,0.804
6537,927.07,0.804
6538,927.16,0.804
6539,927.24,0.804
6540,927.32,0.804
6541,927.41,0.804
6542,927.50,0.804
6543,927.57,0.804
6544,927.65,0.804
6545,927.74,0.803
6546,927.83,0.803
6547,927.91,0.803
6548,927.99,0.803
6549,928.08,0.803
6550,928.16,0.803
6551,928.25,0.803
6552,928.33,0.803
6553,928.41,0.803
6554,928.49,0.803
6555,928.57,0.803
6556,928.65,0.803
6557,928.74,0.803
6558,928.82,0.803
6559,928.91,0.803
6560,928.99,0.803
6561,929.07,0.803
6562,929.16,0.803
6563,929.24,0.803
6564,929.32,0.803
6565,929.41,0.803
6566,929.49,0.802
6567,929.58,0.802
6568,929.66,0.802
6569,929.74,0.802
6570,929.83,0.802
6571,929.91,0.802
6572,929.99,0.802
6573,930.07,0.802
6574,930.16,0.802
6575,930.24,0.802
6576,930.33,0.802
6577,930.41,0.802
6578,930.49,0.802
6579,930.58,0.802
6580,930.66,0.802
6581,930.74,0.802
6582,930.82,0.802
6583,930.91,0.802
6584,930.99,0.801
6585,931.08,0.801
6586,931.16,0.801
6587,931.24,0.801
6588,931.32,0.801
6589,931.41,0.801
6590,931.49,0.801
6591,931.57,0.801
6592,931.66,0.801
6593,931.74,0.801
6594,931.83,0.801
6595,931.91,0.801
6596,931.99,0.801
6597,932.08,0.801
6598,932.15,0.801
6599,932.24,0.801
6600,932.32,0.801
6601,932.41,0.801
6602,932.49,0.800
6603,932.57,0.800
6604,932.66,0.800
6605,932.74,0.800
6606,932.82,0.800
6607,932.91,0.800
6608,932.99,0.800
6609,933.07,0.800
6610,933.15,0.800
6611,933.25,0.800
6612,933.33,0.800
6613,933.41,0.800
6614,933.49,0.800
6615,933.58,0.800
6616,933.66,0.800
6617,933.74,0.800
6618,933.83,0.800
6619,933.91,0.800
6620,934.00,0.800
6621,934.07,0.800
6622,934.16,0.799
6623,934.24,0.799
6624,934.32,0.799
6625,934.41,0.799
6626,934.49,0.799
6627,934.57,0.799
6628,934.66,0.799
6629,934.74,0.799
6630,934.83,0.799
6631,934.90,0.799
6632,935.00,0.799
6633,935.08,0.799
6634,935.16,0.799
6635,935.24,0.799
6636,935.33,0.799
6637,935.41,0.799
6638,935.49,0.799
6639,935.58,0.799
6640,935.66,0.798
6641,935.74,0.798
6642,935.83,0.798
6643,935.91,0.798
6644,935.99,0.798
6645,936.08,0.798
6646,936.16,0.798
6647,936.24,0.798
6648,936.33,0.798
6649,936.41,0.798
6650,936.49,0.798
6651,936.58,0.798
6652,936.66,0.798
6653,936.74,0.798
6654,936.82,0.798
6655,936.91,0.798
6656,937.00,0.798
6657,937.08,0.798
6658,937.16,0.798
6659,937.24,0.798
6660,937.32,0.798
6661,937.40,0.797
6662,937.49,0.797
6663,937.58,0.797
6664,937.66,0.797
6665,937.74,0.797
6666,937.82,0.797
6667,937.91,0.797
6668,937.99,0.797
6669,938.07,0.797
6670,938.15,0.797
6671,938.24,0.797
6672,938.33,0.797
6673,938.40,0.797
6674,938.50,0.797
6675,938.57,0.797
6676,938.66,0.797
6677,938.74,0.797
6678,938.82,0.797
6679,938.91,0.797
6680,938.99,0.797
6681,939.07,0.796
6682,939.16,0.796
6683,939.24,0.796
6684,939.32,0.796
6685,939.41,0.796
6686,939.50,0.796
6687,939.58,0.796
6688,939.66,0.796
6689,939.74,0.796
6690,939.83,0.796
6691,939.90,0.796
6692,939.99,0.796
6693,940.07,0.796
6694,940.16,0.796
6695,940.24,0.796
6696,940.33,0.796
6697,940.41,0.796
6698,940.49,0.796
6699,940.57,0.795
6700,940.65,0.795
6701,940.74,0.795
6702,940.82,0.795
6703,940.91,0.795
6704,940.99,0.795
6705,941.07,0.795
6706,941.16,0.795
6707,941.24,0.795
6708,941.32,0.795
6709,941.41,0.795
6710,941.50,0.795
6711,941.57,0.795
6712,941.66,0.795
6713,941.74,0.795
6714,941.83,0.795
6715,941.91,0.795
6716,941.99,0.795
6717,942.08,0.795
6718,942.16,0.794
6719,942.24,0.794
6720,942.33,0.794
6721,942.40,0.794
6722,942.49,0.794
6723,942.57,0.794
6724,942.66,0.794
6725,942.75,0.794
6726,942.83,0.794
6727,942.91,0.794
6728,942.99,0.794
6729,943.08,0.794
6730,943.16,0.794
6731,943.24,0.794
6732,943.33,0.794
6733,943.41,0.794
6734,943.49,0.794
6735,943.57,0.794
6736,943.66,0.794
6737,943.74,0.794
6738,943.82,0.794
6739,943.91,0.793
6740,943.99,0.793
6741,944.07,0.793
6742,944.16,0.793
6743,944.24,0.793
6744,944.32,0.793
6745,944.41,0.793
6746,944.50,0.793
6747,944.57,0.793
6748,944.66,0.793
6749,944.75,0.793
6750,944.83,0.793
6751,944.91,0.793
6752,944.99,0.793
6753,945.08,0.793
6754,945.16,0.793
6755,945.24,0.793
6756,945.33,0.793
6757,945.41,0.793
6758,945.49,0.793
6759,945.58,0.792
6760,945.66,0.792
6761,945.74,0.792
6762,945.83,0.792
6763,945.91,0.792
6764,946.00,0.792
6765,946.08,0.792
6766,946.16,0.792
6767,946.24,0.792
6768,946.32,0.792
6769,946.40,0.792
6770,946.49,0.792
6771,946.57,0.792
6772,946.65,0.792
6773,946.74,0.792
6774,946.82,0.792
6775,946.91,0.792
6776,946.99,0.792
6777,947.07,0.792
6778,947.16,0.792
6779,947.24,0.792
6780,947.32,0.791
6781,947.40,0.791
6782,947.49,0.791
6783,947.58,0.791
6784,947.65,0.791
6785,947.74,0.791
6786,947.83,0.791
6787,947.91,0.791
6788,947.99,0.791
6789,948.08,0.791
6790,948.16,0.791
6791,948.24,0.791
6792,948.33,0.791
6793,948.41,0.791
6794,948.49,0.791
6795,948.57,0.791
6796,948.66,0.791
6797,948.74,0.791
6798,948.82,0.791
6799,948.91,0.791
6800,948.99,0.791
6801,949.07,0.791
6802,949.16,0.790
6803,949.24,0.790
6804,949.32,0.790
6805,949.41,0.790
6806,949.50,0.790
6807,949.58,0.790
6808,949.65,0.790
6809,949.74,0.790
6810,949.83,0.790
6811,949.91,0.790
6812,949.99,0.790
6813,950.08,0.790
6814,950.15,0.790
6815,950.24,0.790
6816,950.33,0.790
6817,950.41,0.790
6818,950.49,0.790
6819,950.58,0.790
6820,950.66,0.790
6821,950.74,0.790
6822,950.83,0.789
6823,950.91,0.789
6824,950.99,0.789
6825,951.08,0.789
6826,951.16,0.789
6827,951.24,0.789
6828,951.33,0.789
6829,951.41,0.789
6830,951.49,0.789
6831,951.58,0.789
6832,951.66,0.789
6833,951.75,0.789
6834,951.83,0.789
6835,951.91,0.789
6836,951.99,0.789
6837,952.07,0.789
6838,952.15,0.789
6839,952.24,0.789
6840,952.33,0.789
6841,952.40,0.789
6842,952.49,0.789
6843,952.57,0.789
6844,952.65,0.788
6845,952.74,0.788
6846,952.83,0.788
6847,952.91,0.788
6848,952.99,0.788
6849,953.08,0.788
6850,953.16,0.788
6851,953.24,0.788
6852,953.33,0.788
6853,953.41,0.788
6854,953.49,0.788
6855,953.58,0.788
6856,953.66,0.788
6857,953.74,0.788
6858,953.82,0.788
6859,953.91,0.788
6860,953.99,0.788
6861,954.08,0.788
6862,954.16,0.788
6863,954.25,0.787
6864,954.33,0.787
6865,954.41,0.787
6866,954.49,0.787
6867,954.57,0.787
6868,954.65,0.787
6869,954.74,0.787
6870,954.83,0.787
6871,954.91,0.787
6872,954.99,0.787
6873,955.08,0.787
6874,955.16,0.787
6875,955.24,0.787
6876,955.33,0.787
6877,955.41,0.787
6878,955.49,0.787
6879,955.58,0.787
6880,955.66,0.787
6881,955.74,0.787
6882,955.83,0.787
6883,955.91,0.786
6884,955.99,0.786
6885,956.08,0.786
6886,956.16,0.786
6887,956.24,0.786
6888,956.33,0.786
6889,956.41,0.786
6890,956.49,0.786
6891,956.58,0.786
6892,956.66,0.786
6893,956.74,0.786
6894,956.82,0.786
6895,956.91,0.786
6896,956.99,0.786
6897,957.08,0.786
6898,957.16,0.786
6899,957.24,0.786
6900,957.32,0.786
6901,957.40,0.786
6902,957.49,0.786
6903,957.57,0.786
6904,957.66,0.786
6905,957.74,0.786
6906,957.83,0.786
6907,957.91,0.785
6908,957.99,0.785
6909,958.07,0.785
6910,958.16,0.785
6911,958.24,0.785
6912,958.33,0.785
6913,958.41,0.785
6914,958.49,0.785
6915,958.58,0.785
6916,958.66,0.785
6917,958.74,0.785
6918,958.82,0.785
6919,958.92,0.785
6920,958.99,0.785
6921,959.07,0.785
6922,959.16,0.785
6923,959.24,0.785
6924,959.33,0.785
6925,959.41,0.785
6926,959.49,0.785
6927,959.58,0.785
6928,959.66,0.785
6929,959.74,0.784
6930,959.83,0.784
6931,959.91,0.784
6932,959.99,0.784
6933,960.08,0.784
6934,960.16,0.784
6935,960.24,0.784
6936,960.32,0.784
6937,960.40,0.784
6938,960.49,0.784
6939,960.57,0.784
6940,960.65,0.784
6941,960.74,0.784
6942,960.82,0.784
6943,960.91,0.784
6944,960.99,0.784
6945,961.07,0.784
6946,961.16,0.784
6947,961.24,0.784
6948,961.33,0.784
6949,961.41,0.784
6950,961.49,0.783
6951,961.58,0.783
6952,961.66,0.783
6953,961.74,0.783
6954,961.83,0.783
6955,961.91,0.783
6956,961.99,0.783
6957,962.07,0.783
6958,962.16,0.783
6959,962.25,0.783
6960,962.33,0.783
6961,962.41,0.783
6962,962.50,0.783
6963,962.58,0.783
6964,962.66,0.783
6965,962.74,0.783
6966,962.82,0.783
6967,962.90,0.783
6968,962.99,0.783
6969,963.07,0.783
6970,963.16,0.783
6971,963.24,0.783
6972,963.32,0.783
6973,963.41,0.783
6974,963.49,0.783
6975,963.58,0.782
6976,963.66,0.782
6977,963.74,0.782
6978,963.82,0.782
6979,963.91,0.782
6980,963.99,0.782
6981,964.08,0.782
6982,964.16,0.782
6983,964.24,0.782
6984,964.33,0.782
6985,964.41,0.782
6986,964.49,0.782
6987,964.58,0.782
6988,964.66,0.782
6989,964.74,0.782
6990,964.83,0.782
6991,964.91,0.782
6992,964.99,0.782
6993,965.07,0.782
6994,965.16,0.782
6995,965.25,0.782
6996,965.33,0.782
6997,965.41,0.781
6998,965.49,0.781
6999,965.58,0.781
7000,965.66,0.781
7001,965.75,0.781
7002,965.83,0.781
7003,965.91,0.781
7004,965.98,0.781
7005,966.08,0.781
7006,966.16,0.781
7007,966.24,0.781
7008,966.32,0.781
7009,966.41,0.781
7010,966.49,0.781
7011,966.57,0.781
7012,966.66,0.781
7013,966.74,0.781
7014,966.82,0.781
7015,966.91,0.781
7016,967.00,0.781
7017,967.07,0.781
7018,967.16,0.781
7019,967.25,0.781
7020,967.33,0.781
7021,967.41,0.781
7022,967.49,0.781
7023,967.58,0.780
7024,967.66,0.780
7025,967.74,0.780
7026,967.82,0.780
7027,967.91,0.780
7028,968.00,0.780
7029,968.07,0.780
7030,968.15,0.780
7031,968.24,0.780
7032,968.33,0.780
7033,968.41,0.780
7034,968.49,0.780
7035,968.57,0.780
7036,968.66,0.780
7037,968.74,0.780
7038,968.83,0.780
7039,968.91,0.780
7040,968.99,0.780
7041,969.07,0.780
7042,969.16,0.780
7043,969.24,0.779
7044,969.33,0.779
7045,969.41,0.779
7046,969.49,0.779
7047,969.58,0.779
7048,969.66,0.779
7049,969.74,0.779
7050,969.83,0.779
7051,969.91,0.779
7052,969.99,0.779
7053,970.08,0.779
7054,970.16,0.779
7055,970.24,0.779
7056,970.33,0.779
7057,970.41,0.779
7058,970.49,0.779
7059,970.57,0.779
7060,970.65,0.779
7061,970.74,0.779
7062,970.83,0.779
7063,970.91,0.779
7064,971.00,0.779
7065,971.07,0.779
7066,971.15,0.779
7067,971.24,0.779
7068,971.33,0.779
7069,971.41,0.778
7070,971.49,0.778
7071,971.57,0.778
7072,971.65,0.778
7073,971.74,0.778
7074,971.82,0.778
7075,971.91,0.778
7076,972.00,0.778
7077,972.08,0.778
7078,972.16,0.778
7079,972.24,0.778
7080,972.33,0.778
7081,972.41,0.778
7082,972.49,0.778
7083,972.58,0.778
7084,972.66,0.778
7085,972.75,0.778
7086,972.82,0.778
7087,972.91,0.778
7088,972.99,0.778
7089,973.08,0.778
7090,973.16,0.778
7091,973.24,0.778
7092,973.33,0.778
7093,973.41,0.777
7094,973.49,0.777
7095,973.58,0.777
7096,973.66,0.777
7097,973.75,0.777
7098,973.83,0.777
7099,973.91,0.777
7100,973.99,0.777
7101,974.07,0.777
7102,974.16,0.777
7103,974.24,0.777
7104,974.32,0.777
7105,974.41,0.777
7106,974.49,0.777
7107,974.57,0.777
7108,974.66,0.777
7109,974.74,0.777
7110,974.82,0.777
7111,974.91,0.777
7112,974.99,0.777
7113,975.07,0.777
7114,975.16,0.777
7115,975.24,0.777
7116,975.32,0.777
7117,975.41,0.777
7118,975.50,0.777
7119,975.57,0.776
7120,975.66,0.776
7121,975.74,0.776
7122,975.83,0.776
7123,975.91,0.776
7124,975.99,0.776
7125,976.07,0.776
7126,976.16,0.776
7127,976.24,0.776
7128,976.33,0.776
7129,976.41,0.776
7130,976.49,0.776
7131,976.57,0.776
7132,976.65,0.776
7133,976.74,0.776
7134,976.83,0.776
7135,976.91,0.776
7136,976.99,0.776
7137,977.07,0.776
7138,977.16,0.776
7139,977.24,0.776
7140,977.32,0.776
7141,977.41,0.776
7142,977.49,0.776
7143,977.57,0.776
7144,977.67,0.776
7145,977.74,0.776
7146,977.82,0.775
7147,977.91,0.775
7148,977.99,0.775
7149,978.07,0.775
7150,978.16,0.775
7151,978.25,0.775
7152,978.32,0.775
7153,978.40,0.775
7154,978.50,0.775
7155,978.58,0.775
7156,978.66,0.775
7157,978.74,0.775
7158,978.83,0.775
7159,978.91,0.775
7160,978.99,0.775
7161,979.08,0.775
7162,979.16,0.775
7163,979.25,0.775
7164,979.33,0.775
7165,979.41,0.775
7166,979.49,0.775
7167,979.57,0.775
7168,979.66,0.775
7169,979.75,0.775
7170,979.83,0.775
7171,979.91,0.774
7172,979.99,0.774
7173,980.08,0.774
7174,980.16,0.774
7175,980.24,0.774
7176,980.33,0.774
7177,980.41,0.774
7178,980.49,0.774
7179,980.58,0.774
7180,980.66,0.774
7181,980.74,0.774
7182,980.83,0.774
7183,980.91,0.774
7184,980.99,0.774
7185,981.08,0.774
7186,981.15,0.774
7187,981.24,0.774
7188,981.33,0.774
7189,981.41,0.774
7190,981.50,0.774
7191,981.58,0.774
7192,981.66,0.774
7193,981.75,0.774
7194,981.83,0.774
7195,981.91,0.773
7196,981.99,0.773
7197,982.07,0.773
7198,982.15,0.773
7199,982.24,0.773
7200,982.33,0.773
7201,982.41,0.773
7202,982.49,0.773
7203,982.58,0.773
7204,982.66,0.773
7205,982.74,0.773
7206,982.82,0.773
7207,982.91,0.773
7208,982.99,0.773
7209,983.07,0.773
7210,983.16,0.773
7211,983.24,0.773
7212,983.32,0.773
7213,983.41,0.773
7214,983.49,0.773
7215,983.57,0.773
7216,983.65,0.773
7217,983.74,0.773
7218,983.83,0.773
7219,983.91,0.773
7220,983.99,0.773
7221,984.08,0.772
7222,984.16,0.772
7223,984.24,0.772
7224,984.33,0.772
7225,984.41,0.772
7226,984.49,0.772
7227,984.58,0.772
7228,984.66,0.772
7229,984.74,0.772
7230,984.82,0.772
7231,984.91,0.772
7232,984.99,0.772
7233,985.07,0.772
7234,985.16,0.772
7235,985.24,0.772
7236,985.32,0.772
7237,985.41,0.772
7238,985.50,0.772
7239,985.58,0.772
7240,985.66,0.772
7241,985.74,0.772
7242,985.83,0.772
7243,985.91,0.772
7244,985.99,0.772
7245,986.07,0.772
7246,986.16,0.772
7247,986.24,0.772
7248,986.33,0.772
7249,986.41,0.772
7250,986.49,0.771
7251,986.58,0.771
7252,986.66,0.771
7253,986.74,0.771
7254,986.82,0.771
7255,986.91,0.771
7256,986.99,0.771
7257,987.07,0.771
7258,987.16,0.771
7259,987.24,0.771
7260,987.32,0.771
7261,987.41,0.771
7262,987.49,0.771
7263,987.57,0.771
7264,987.66,0.771
7265,987.74,0.771
7266,987.83,0.771
7267,987.91,0.771
7268,988.00,0.771
7269,988.08,0.771
7270,988.16,0.771
7271,988.24,0.771
7272,988.33,0.771
7273,988.41,0.770
7274,988.49,0.770
7275,988.58,0.770
7276,988.65,0.770
7277,988.74,0.770
7278,988.83,0.770
7279,988.91,0.770
7280,988.99,0.770
7281,989.08,0.770
7282,989.16,0.770
7283,989.24,0.770
7284,989.32,0.770
7285,989.41,0.770
7286,989.50,0.770
7287,989.58,0.770
7288,989.66,0.770
7289,989.74,0.770
7290,989.82,0.770
7291,989.91,0.770
7292,989.99,0.770
7293,990.07,0.770
7294,990.16,0.769
7295,990.24,0.769
7296,990.33,0.769
7297,990.40,0.769
7298,990.49,0.769
7299,990.58,0.769
7300,990.65,0.769
7301,990.74,0.769
7302,990.83,0.769
7303,990.91,0.769
7304,991.00,0.769
7305,991.08,0.769
7306,991.16,0.769
7307,991.24,0.769
7308,991.33,0.769
7309,991.41,0.769
7310,991.49,0.769
7311,991.58,0.769
7312,991.66,0.769
7313,991.74,0.769
7314,991.83,0.769
7315,991.91,0.769
7316,992.00,0.769
7317,992.08,0.768
7318,992.16,0.768
7319,992.25,0.768
7320,992.33,0.768
7321,992.41,0.768
7322,992.49,0.768
7323,992.57,0.768
7324,992.66,0.768
7325,992.74,0.768
7326,992.83,0.768
7327,992.91,0.768
7328,992.99,0.768
7329,993.08,0.768
7330,993.16,0.768
7331,993.24,0.768
7332,993.32,0.768
7333,993.41,0.768
7334,993.49,0.768
7335,993.58,0.768
7336,993.66,0.768
7337,993.73,0.768
7338,993.82,0.768
7339,993.91,0.768
7340,993.99,0.768
7341,994.07,0.768
7342,994.16,0.768
7343,994.24,0.767
7344,994.33,0.767
7345,994.41,0.767
7346,994.49,0.767
7347,994.58,0.767
7348,994.67,0.767
7349,994.74,0.767
7350,994.82,0.767
7351,994.91,0.767
7352,994.99,0.767
7353,995.07,0.767
7354,995.15,0.767
7355,995.24,0.767
7356,995.33,0.767
7357,995.41,0.767
7358,995.49,0.767
7359,995.58,0.767
7360,995.66,0.767
7361,995.74,0.767
7362,995.83,0.767
7363,995.91,0.767
7364,995.99,0.767
7365,996.07,0.767
7366,996.16,0.767
7367,996.25,0.766
7368,996.32,0.766
7369,996.41,0.766
7370,996.49,0.766
7371,996.58,0.766
7372,996.66,0.766
7373,996.75,0.766
7374,996.82,0.766
7375,996.91,0.766
7376,997.00,0.766
7377,997.08,0.766
7378,997.15,0.766
7379,997.24,0.766
7380,997.32,0.766
7381,997.41,0.766
7382,997.49,0.766
7383,997.58,0.766
7384,997.66,0.766
7385,997.74,0.766
7386,997.82,0.766
7387,997.91,0.766
7388,997.99,0.766
7389,998.07,0.766
7390,998.16,0.766
7391,998.24,0.766
7392,998.32,0.765
7393,998.41,0.765
7394,998.49,0.765
7395,998.57,0.765
7396,998.66,0.765
7397,998.74,0.765
7398,998.82,0.765
7399,998.91,0.765
7400,999.00,0.765
7401,999.08,0.765
7402,999.16,0.765
7403,999.25,0.765
7404,999.33,0.765
7405,999.41,0.765
7406,999.50,0.765
7407,999.58,0.765
7408,999.66,0.765
7409,999.75,0.765
7410,999.83,0.765
7411,999.91,0.765
7412,1000.00,0.765
7413,1000.08,0.765
7414,1000.16,0.765
7415,1000.24,0.765
7416,1000.32,0.765
7417,1000.40,0.765
7418,1000.49,0.765
7419,1000.57,0.765
7420,1000.66,0.765
7421,1000.74,0.765
7422,1000.82,0.765
7423,1000.91,0.764
7424,1000.99,0.764
7425,1001.07,0.764
7426,1001.16,0.764
7427,1001.25,0.764
7428,1001.32,0.764
7429,1001.41,0.764
7430,1001.50,0.764
7431,1001.57,0.764
7432,1001.66,0.764
7433,1001.74,0.764
7434,1001.83,0.764
7435,1001.91,0.764
7436,1001.99,0.764
7437,1002.08,0.764
7438,1002.16,0.764
7439,1002.24,0.764
7440,1002.33,0.764
7441,1002.41,0.764
7442,1002.50,0.764
7443,1002.58,0.764
7444,1002.66,0.764
7445,1002.75,0.764
7446,1002.83,0.764
7447,1002.90,0.764
7448,1002.99,0.764
7449,1003.07,0.764
7450,1003.16,0.764
7451,1003.25,0.764
7452,1003.33,0.764
7453,1003.40,0.764
7454,1003.49,0.764
7455,1003.57,0.764
7456,1003.66,0.763
7457,1003.75,0.763
7458,1003.82,0.763
7459,1003.91,0.763
7460,1003.99,0.763
7461,1004.07,0.763
7462,1004.16,0.763
7463,1004.24,0.763
7464,1004.33,0.763
7465,1004.41,0.763
7466,1004.49,0.763
7467,1004.57,0.763
7468,1004.66,0.763
7469,1004.75,0.763
7470,1004.83,0.763
7471,1004.91,0.763
7472,1004.99,0.763
7473,1005.07,0.763
7474,1005.16,0.763
7475,1005.25,0.763
7476,1005.33,0.763
7477,1005.41,0.763
7478,1005.49,0.763
7479,1005.57,0.763
7480,1005.66,0.763
7481,1005.74,0.763
7482,1005.82,0.763
7483,1005.91,0.763
7484,1006.00,0.762
7485,1006.08,0.762
7486,1006.15,0.762
7487,1006.25,0.762
7488,1006.33,0.762
7489,1006.41,0.762
7490,1006.50,0.762
7491,1006.57,0.762
7492,1006.66,0.762
7493,1006.74,0.762
7494,1006.82,0.762
7495,1006.91,0.762
7496,1006.99,0.762
7497,1007.08,0.762
7498,1007.16,0.762
7499,1007.25,0.762
7500,1007.33,0.762
7501,1007.40,0.762
7502,1007.49,0.762
7503,1007.57,0.762
7504,1007.66,0.762
7505,1007.75,0.762
7506,1007.83,0.762
7507,1007.91,0.762
7508,1007.99,0.762
7509,1008.07,0.762
7510,1008.16,0.762
7511,1008.24,0.762
7512,1008.32,0.762
7513,1008.41,0.762
7514,1008.49,0.761
7515,1008.58,0.761
7516,1008.66,0.761
7517,1008.74,0.761
7518,1008.83,0.761
7519,1008.91,0.761
7520,1008.99,0.761
7521,1009.08,0.761
7522,1009.16,0.761
7523,1009.24,0.761
7524,1009.33,0.761
7525,1009.41,0.761
7526,1009.49,0.761
7527,1009.58,0.761
7528,1009.66,0.761
7529,1009.74,0.761
7530,1009.83,0.761
7531,1009.91,0.761
7532,1009.99,0.761
7533,1010.07,0.761
7534,1010.16,0.761
7535,1010.24,0.761
7536,1010.33,0.761
7537,1010.41,0.761
7538,1010.49,0.761
7539,1010.57,0.761
7540,1010.66,0.761
7541,1010.74,0.761
7542,1010.82,0.761
7543,1010.91,0.761
7544,1010.99,0.760
7545,1011.07,0.760
7546,1011.16,0.760
7547,1011.24,0.760
7548,1011.32,0.760
7549,1011.41,0.760
7550,1011.49,0.760
7551,1011.57,0.760
7552,1011.66,0.760
7553,1011.75,0.760
7554,1011.82,0.760
7555,1011.91,0.760
7556,1012.00,0.760
7557,1012.08,0.760
7558,1012.16,0.760
7559,1012.24,0.760
7560,1012.33,0.760
7561,1012.41,0.760
7562,1012.49,0.760
7563,1012.58,0.760
7564,1012.66,0.760
7565,1012.75,0.760
7566,1012.83,0.760
7567,1012.91,0.760
7568,1012.99,0.760
7569,1013.08,0.760
7570,1013.16,0.760
7571,1013.24,0.760
7572,1013.32,0.759
7573,1013.40,0.759
7574,1013.50,0.759
7575,1013.58,0.759
7576,1013.65,0.759
7577,1013.74,0.759
7578,1013.83,0.759
7579,1013.90,0.759
7580,1013.99,0.759
7581,1014.08,0.759
7582,1014.16,0.759
7583,1014.24,0.759
7584,1014.32,0.759
7585,1014.41,0.759
7586,1014.50,0.759
7587,1014.57,0.759
7588,1014.66,0.759
7589,1014.74,0.759
7590,1014.83,0.759
7591,1014.91,0.759
7592,1014.99,0.759
7593,1015.07,0.759
7594,1015.15,0.759
7595,1015.24,0.759
7596,1015.32,0.759
7597,1015.40,0.759
7598,1015.49,0.758
7599,1015.58,0.758
7600,1015.66,0.758
7601,1015.74,0.758
7602,1015.83,0.758
7603,1015.91,0.758
7604,1015.99,0.758
7605,1016.08,0.758
7606,1016.16,0.758
7607,1016.24,0.758
7608,1016.33,0.758
7609,1016.41,0.758
7610,1016.49,0.758
7611,1016.57,0.758
7612,1016.66,0.758
7613,1016.74,0.758
7614,1016.82,0.758
7615,1016.91,0.758
7616,1016.99,0.758
7617,1017.08,0.758
7618,1017.16,0.758
7619,1017.24,0.758
7620,1017.33,0.758
7621,1017.41,0.758
7622,1017.50,0.758
7623,1017.58,0.758
7624,1017.65,0.758
7625,1017.74,0.758
7626,1017.83,0.758
7627,1017.91,0.758
7628,1017.99,0.758
7629,1018.07,0.757
7630,1018.16,0.757
7631,1018.24,0.757
7632,1018.32,0.757
7633,1018.41,0.757
7634,1018.49,0.757
7635,1018.58,0.757
7636,1018.66,0.757
7637,1018.75,0.757
7638,1018.83,0.757
7639,1018.91,0.757
7640,1018.99,0.757
7641,1019.08,0.757
7642,1019.16,0.757
7643,1019.24,0.757
7644,1019.33,0.757
7645,1019.41,0.757
7646,1019.49,0.757
7647,1019.58,0.757
7648,1019.66,0.757
7649,1019.75,0.757
7650,1019.82,0.757
7651,1019.91,0.757
7652,1019.99,0.757
7653,1020.07,0.757
7654,1020.15,0.757
7655,1020.24,0.757
7656,1020.32,0.757
7657,1020.41,0.757
7658,1020.49,0.756
7659,1020.57,0.756
7660,1020.66,0.756
7661,1020.74,0.756
7662,1020.82,0.756
7663,1020.91,0.756
7664,1020.99,0.756
7665,1021.07,0.756
7666,1021.16,0.756
7667,1021.24,0.756
7668,1021.32,0.756
7669,1021.41,0.756
7670,1021.49,0.756
7671,1021.58,0.756
7672,1021.66,0.756
7673,1021.74,0.756
7674,1021.83,0.756
7675,1021.91,0.756
7676,1021.99,0.756
7677,1022.08,0.756
7678,1022.16,0.756
7679,1022.24,0.756
7680,1022.32,0.756
7681,1022.41,0.756
7682,1022.49,0.756
7683,1022.57,0.756
7684,1022.65,0.756
7685,1022.74,0.756
7686,1022.83,0.756
7687,1022.91,0.756
7688,1022.99,0.756
7689,1023.08,0.755
7690,1023.15,0.755
7691,1023.24,0.755
7692,1023.33,0.755
7693,1023.41,0.755
7694,1023.49,0.755
7695,1023.57,0.755
7696,1023.66,0.755
7697,1023.74,0.755
7698,1023.82,0.755
7699,1023.91,0.755
7700,1024.00,0.755
7701,1024.07,0.755
7702,1024.15,0.755
7703,1024.24,0.755
7704,1024.33,0.755
7705,1024.41,0.755
7706,1024.49,0.755
7707,1024.58,0.755
7708,1024.66,0.755
7709,1024.74,0.755
7710,1024.83,0.755
7711,1024.91,0.755
7712,1024.99,0.755
7713,1025.07,0.755
7714,1025.16,0.755
7715,1025.24,0.755
7716,1025.32,0.755
7717,1025.41,0.754
7718,1025.50,0.754
7719,1025.58,0.754
7720,1025.66,0.754
7721,1025.74,0.754
7722,1025.83,0.754
7723,1025.91,0.754
7724,1025.99,0.754
7725,1026.08,0.754
7726,1026.16,0.754
7727,1026.25,0.754
7728,1026.33,0.754
7729,1026.41,0.754
7730,1026.50,0.754
7731,1026.58,0.754
7732,1026.66,0.754
7733,1026.74,0.754
7734,1026.83,0.754
7735,1026.91,0.754
7736,1026.99,0.754
7737,1027.08,0.754
7738,1027.16,0.754
7739,1027.24,0.754
7740,1027.32,0.754
7741,1027.40,0.754
7742,1027.49,0.754
7743,1027.57,0.754
7744,1027.66,0.754
7745,1027.75,0.753
7746,1027.82,0.753
7747,1027.90,0.753
7748,1028.00,0.753
7749,1028.08,0.753
7750,1028.15,0.753
7751,1028.24,0.753
7752,1028.33,0.753
7753,1028.41,0.753
7754,1028.50,0.753
7755,1028.58,0.753
7756,1028.65,0.753
7757,1028.74,0.753
7758,1028.83,0.753
7759,1028.91,0.753
7760,1028.99,0.753
7761,1029.07,0.753
7762,1029.16,0.753
7763,1029.25,0.753
7764,1029.32,0.753
7765,1029.40,0.753
7766,1029.49,0.753
7767,1029.57,0.753
7768,1029.65,0.753
7769,1029.74,0.753
7770,1029.82,0.753
7771,1029.91,0.753
7772,1029.99,0.753
7773,1030.08,0.753
7774,1030.16,0.753
7775,1030.24,0.753
7776,1030.33,0.753
7777,1030.41,0.753
7778,1030.49,0.753
7779,1030.58,0.752
7780,1030.66,0.752
7781,1030.74,0.752
7782,1030.83,0.752
7783,1030.91,0.752
7784,1031.00,0.752
7785,1031.08,0.752
7786,1031.16,0.752
7787,1031.24,0.752
7788,1031.33,0.752
7789,1031.41,0.752
7790,1031.49,0.752
7791,1031.57,0.752
7792,1031.66,0.752
7793,1031.74,0.752
7794,1031.83,0.752
7795,1031.91,0.752
7796,1031.99,0.752
7797,1032.08,0.752
7798,1032.15,0.752
7799,1032.24,0.752
7800,1032.33,0.752
7801,1032.41,0.752
7802,1032.49,0.752
7803,1032.58,0.751
7804,1032.66,0.751
7805,1032.74,0.751
7806,1032.83,0.751
7807,1032.91,0.751
7808,1032.99,0.751
7809,1033.08,0.751
7810,1033.16,0.751
7811,1033.24,0.751
7812,1033.33,0.751
7813,1033.41,0.751
7814,1033.49,0.751
7815,1033.58,0.751
7816,1033.66,0.751
7817,1033.75,0.751
7818,1033.83,0.751
7819,1033.91,0.751
7820,1033.99,0.751
7821,1034.08,0.751
7822,1034.16,0.751
7823,1034.25,0.751
7824,1034.33,0.751
7825,1034.41,0.751
7826,1034.49,0.751
7827,1034.57,0.751
7828,1034.66,0.751
7829,1034.74,0.751
7830,1034.82,0.751
7831,1034.90,0.751
7832,1034.99,0.751
7833,1035.07,0.751
7834,1035.16,0.751
7835,1035.24,0.750
7836,1035.32,0.750
7837,1035.41,0.750
7838,1035.49,0.750
7839,1035.58,0.750
7840,1035.66,0.750
7841,1035.75,0.750
7842,1035.83,0.750
7843,1035.90,0.750
7844,1035.99,0.750
7845,1036.08,0.750
7846,1036.16,0.750
7847,1036.24,0.750
7848,1036.33,0.750
7849,1036.41,0.750
7850,1036.49,0.750
7851,1036.58,0.750
7852,1036.66,0.750
7853,1036.73,0.750
7854,1036.82,0.750
7855,1036.91,0.750
7856,1036.99,0.750
7857,1037.07,0.750
7858,1037.16,0.750
7859,1037.24,0.750
7860,1037.32,0.750
7861,1037.41,0.750
7862,1037.49,0.749
7863,1037.58,0.749
7864,1037.66,0.749
7865,1037.74,0.749
7866,1037.82,0.749
7867,1037.91,0.749
7868,1038.00,0.749
7869,1038.08,0.749
7870,1038.16,0.749
7871,1038.24,0.749
7872,1038.32,0.749
7873,1038.40,0.749
7874,1038.49,0.749
7875,1038.58,0.749
7876,1038.66,0.749
7877,1038.75,0.749
7878,1038.83,0.749
7879,1038.91,0.749
7880,1038.99,0.749
7881,1039.07,0.749
7882,1039.15,0.749
7883,1039.24,0.749
7884,1039.32,0.749
7885,1039.41,0.749
7886,1039.49,0.749
7887,1039.57,0.749
7888,1039.66,0.749
7889,1039.74,0.748
7890,1039.82,0.748
7891,1039.91,0.748
7892,1040.00,0.748
7893,1040.08,0.748
7894,1040.15,0.748
7895,1040.24,0.748
7896,1040.33,0.748
7897,1040.40,0.748
7898,1040.49,0.748
7899,1040.58,0.748
7900,1040.67,0.748
7901,1040.74,0.748
7902,1040.82,0.748
7903,1040.90,0.748
7904,1040.99,0.748
7905,1041.07,0.748
7906,1041.16,0.748
7907,1041.24,0.748
7908,1041.33,0.748
7909,1041.40,0.748
7910,1041.49,0.748
7911,1041.58,0.748
7912,1041.66,0.748
7913,1041.74,0.748
7914,1041.83,0.748
7915,1041.91,0.748
7916,1041.99,0.748
7917,1042.08,0.748
7918,1042.16,0.748
7919,1042.24,0.748
7920,1042.33,0.747
7921,1042.41,0.747
7922,1042.49,0.747
7923,1042.58,0.747
7924,1042.66,0.747
7925,1042.75,0.747
7926,1042.83,0.747
7927,1042.91,0.747
7928,1043.00,0.747
7929,1043.08,0.747
7930,1043.16,0.747
7931,1043.24,0.747
7932,1043.32,0.747
7933,1043.40,0.747
7934,1043.49,0.747
7935,1043.57,0.747
7936,1043.66,0.747
7937,1043.74,0.747
7938,1043.82,0.747
7939,1043.91,0.747
7940,1043.99,0.747
7941,1044.08,0.747
7942,1044.16,0.747
7943,1044.24,0.747
7944,1044.33,0.747
7945,1044.41,0.747
7946,1044.49,0.747
7947,1044.58,0.746
7948,1044.66,0.746
7949,1044.75,0.746
7950,1044.82,0.746
7951,1044.91,0.746
7952,1045.00,0.746
7953,1045.08,0.746
7954,1045.16,0.746
7955,1045.24,0.746
7956,1045.33,0.746
7957,1045.41,0.746
7958,1045.49,0.746
7959,1045.57,0.746
7960,1045.65,0.746
7961,1045.74,0.746
7962,1045.82,0.746
7963,1045.91,0.746
7964,1045.99,0.746
7965,1046.07,0.746
7966,1046.16,0.746
7967,1046.24,0.746
7968,1046.32,0.746
7969,1046.41,0.746
7970,1046.49,0.746
7971,1046.58,0.746
7972,1046.66,0.746
7973,1046.74,0.746
7974,1046.83,0.746
7975,1046.91,0.746
7976,1046.99,0.746
7977,1047.07,0.745
7978,1047.16,0.745
7979,1047.24,0.745
7980,1047.32,0.745
7981,1047.41,0.745
7982,1047.50,0.745
7983,1047.58,0.745
7984,1047.66,0.745
7985,1047.74,0.745
7986,1047.82,0.745
7987,1047.90,0.745
7988,1047.99,0.745
7989,1048.08,0.745
7990,1048.16,0.745
7991,1048.24,0.745
7992,1048.32,0.745
7993,1048.41,0.745
7994,1048.49,0.745
7995,1048.58,0.745
7996,1048.66,0.745
7997,1048.75,0.745
7998,1048.83,0.745
7999,1048.91,0.745
8000,1049.00,0.745
8001,1049.07,0.745
8002,1049.16,0.745
8003,1049.24,0.745
8004,1049.32,0.745
8005,1049.41,0.745
8006,1049.50,0.745
8007,1049.57,0.744
8008,1049.66,0.744
8009,1049.74,0.744
8010,1049.83,0.744
8011,1049.91,0.744
8012,1049.99,0.744
8013,1050.07,0.744
8014,1050.15,0.744
8015,1050.24,0.744
8016,1050.32,0.744
8017,1050.41,0.744
8018,1050.49,0.744
8019,1050.57,0.744
8020,1050.66,0.744
8021,1050.74,0.744
8022,1050.83,0.744
8023,1050.91,0.744
8024,1050.99,0.744
8025,1051.08,0.744
8026,1051.15,0.744
8027,1051.25,0.744
8028,1051.33,0.744
8029,1051.41,0.744
8030,1051.49,0.744
8031,1051.58,0.744
8032,1051.66,0.744
8033,1051.74,0.744
8034,1051.83,0.744
8035,1051.91,0.744
8036,1051.99,0.744
8037,1052.07,0.743
8038,1052.16,0.743
8039,1052.25,0.743
8040,1052.33,0.743
8041,1052.41,0.743
8042,1052.49,0.743
8043,1052.58,0.743
8044,1052.66,0.743
8045,1052.74,0.743
8046,1052.82,0.743
8047,1052.91,0.743
8048,1053.00,0.743
8049,1053.07,0.743
8050,1053.15,0.743
8051,1053.25,0.743
8052,1053.32,0.743
8053,1053.41,0.743
8054,1053.50,0.743
8055,1053.58,0.743
8056,1053.65,0.743
8057,1053.74,0.743
8058,1053.83,0.743
8059,1053.90,0.743
8060,1053.99,0.743
8061,1054.08,0.743
8062,1054.16,0.743
8063,1054.24,0.743
8064,1054.33,0.743
8065,1054.41,0.743
8066,1054.50,0.743
8067,1054.58,0.742
8068,1054.66,0.742
8069,1054.74,0.742
8070,1054.82,0.742
8071,1054.90,0.742
8072,1054.99,0.742
8073,1055.07,0.742
8074,1055.16,0.742
8075,1055.24,0.742
8076,1055.32,0.742
8077,1055.41,0.742
8078,1055.49,0.742
8079,1055.58,0.742
8080,1055.66,0.742
8081,1055.75,0.742
8082,1055.83,0.742
8083,1055.91,0.742
8084,1055.99,0.742
8085,1056.08,0.742
8086,1056.16,0.742
8087,1056.24,0.742
8088,1056.33,0.742
8089,1056.41,0.742
8090,1056.49,0.742
8091,1056.57,0.742
8092,1056.66,0.742
8093,1056.74,0.742
8094,1056.83,0.742
8095,1056.91,0.742
8096,1056.99,0.741
8097,1057.07,0.741
8098,1057.15,0.741
8099,1057.24,0.741
8100,1057.32,0.741
8101,1057.41,0.741
8102,1057.49,0.741
8103,1057.57,0.741
8104,1057.66,0.741
8105,1057.74,0.741
8106,1057.82,0.741
8107,1057.91,0.741
8108,1057.99,0.741
8109,1058.08,0.741
8110,1058.16,0.741
8111,1058.24,0.741
8112,1058.33,0.741
8113,1058.41,0.741
8114,1058.50,0.741
8115,1058.58,0.741
8116,1058.66,0.741
8117,1058.74,0.741
8118,1058.82,0.741
8119,1058.91,0.741
8120,1058.99,0.741
8121,1059.08,0.741
8122,1059.16,0.741
8123,1059.24,0.741
8124,1059.32,0.741
8125,1059.41,0.741
8126,1059.49,0.741
8127,1059.58,0.740
8128,1059.66,0.740
8129,1059.74,0.740
8130,1059.83,0.740
8131,1059.91,0.740
8132,1059.99,0.740
8133,1060.07,0.740
8134,1060.16,0.740
8135,1060.24,0.740
8136,1060.33,0.740
8137,1060.41,0.740
8138,1060.49,0.740
8139,1060.58,0.740
8140,1060.66,0.740
8141,1060.74,0.740
8142,1060.82,0.740
8143,1060.91,0.740
8144,1061.00,0.740
8145,1061.07,0.740
8146,1061.15,0.740
8147,1061.24,0.740
8148,1061.33,0.740
8149,1061.42,0.740
8150,1061.50,0.740
8151,1061.57,0.740
8152,1061.65,0.740
8153,1061.74,0.740
8154,1061.82,0.740
8155,1061.90,0.740
8156,1061.99,0.740
8157,1062.07,0.740
8158,1062.16,0.739
8159,1062.24,0.739
8160,1062.32,0.739
8161,1062.41,0.739
8162,1062.49,0.739
8163,1062.57,0.739
8164,1062.66,0.739
8165,1062.74,0.739
8166,1062.82,0.739
8167,1062.91,0.739
8168,1062.99,0.739
8169,1063.07,0.739
8170,1063.15,0.739
8171,1063.24,0.739
8172,1063.32,0.739
8173,1063.40,0.739
8174,1063.49,0.739
8175,1063.58,0.739
8176,1063.66,0.739
8177,1063.74,0.739
8178,1063.83,0.739
8179,1063.91,0.739
8180,1063.99,0.739
8181,1064.07,0.739
8182,1064.16,0.739
8183,1064.24,0.739
8184,1064.32,0.739
8185,1064.41,0.739
8186,1064.49,0.739
8187,1064.57,0.739
8188,1064.66,0.739
8189,1064.74,0.739
8190,1064.82,0.738
8191,1064.91,0.738
8192,1065.00,0.738
8193,1065.08,0.738
8194,1065.16,0.738
8195,1065.24,0.738
8196,1065.33,0.738
8197,1065.41,0.738
8198,1065.49,0.738
8199,1065.57,0.738
8200,1065.65,0.738
8201,1065.74,0.738
8202,1065.83,0.738
8203,1065.91,0.738
8204,1065.99,0.738
8205,1066.08,0.738
8206,1066.16,0.738
8207,1066.24,0.738
8208,1066.33,0.738
8209,1066.41,0.738
8210,1066.49,0.738
8211,1066.57,0.738
8212,1066.66,0.738
8213,1066.74,0.738
8214,1066.83,0.738
8215,1066.90,0.738
8216,1066.99,0.738
8217,1067.08,0.738
8218,1067.16,0.737
8219,1067.24,0.737
8220,1067.33,0.737
8221,1067.41,0.737
8222,1067.49,0.737
8223,1067.56,0.737
8224,1067.66,0.737
8225,1067.75,0.737
8226,1067.83,0.737
8227,1067.91,0.737
8228,1067.99,0.737
8229,1068.07,0.737
8230,1068.16,0.737
8231,1068.24,0.737
8232,1068.32,0.737
8233,1068.41,0.737
8234,1068.49,0.737
8235,1068.57,0.737
8236,1068.66,0.737
8237,1068.74,0.737
8238,1068.82,0.737
8239,1068.91,0.737
8240,1068.99,0.737
8241,1069.08,0.737
8242,1069.16,0.737
8243,1069.24,0.737
8244,1069.33,0.737
8245,1069.41,0.737
8246,1069.49,0.737
8247,1069.57,0.737
8248,1069.66,0.736
8249,1069.74,0.736
8250,1069.82,0.736
8251,1069.90,0.736
8252,1069.99,0.736
8253,1070.07,0.736
8254,1070.16,0.736
8255,1070.24,0.736
8256,1070.33,0.736
8257,1070.41,0.736
8258,1070.49,0.736
8259,1070.58,0.736
8260,1070.65,0.736
8261,1070.74,0.736
8262,1070.83,0.736
8263,1070.91,0.736
8264,1070.99,0.736
8265,1071.08,0.736
8266,1071.15,0.736
8267,1071.24,0.736
8268,1071.33,0.736
8269,1071.41,0.736
8270,1071.49,0.736
8271,1071.57,0.736
8272,1071.65,0.736
8273,1071.74,0.736
8274,1071.82,0.736
8275,1071.91,0.736
8276,1071.99,0.735
8277,1072.07,0.735
8278,1072.16,0.735
8279,1072.24,0.735
8280,1072.32,0.735
8281,1072.41,0.735
8282,1072.49,0.735
8283,1072.57,0.735
8284,1072.66,0.735
8285,1072.75,0.735
8286,1072.82,0.735
8287,1072.91,0.735
8288,1072.99,0.735
8289,1073.07,0.735
8290,1073.16,0.735
8291,1073.25,0.735
8292,1073.32,0.735
8293,1073.41,0.735
8294,1073.50,0.735
8295,1073.57,0.735
8296,1073.66,0.735
8297,1073.74,0.735
8298,1073.83,0.735
8299,1073.91,0.735
8300,1074.00,0.735
8301,1074.08,0.735
8302,1074.16,0.735
8303,1074.24,0.735
8304,1074.32,0.735
8305,1074.41,0.734
8306,1074.49,0.734
8307,1074.57,0.734
8308,1074.66,0.734
8309,1074.74,0.734
8310,1074.82,0.734
8311,1074.91,0.734
8312,1074.99,0.734
8313,1075.07,0.734
8314,1075.16,0.734
8315,1075.24,0.734
8316,1075.32,0.734
8317,1075.41,0.734
8318,1075.49,0.734
8319,1075.57,0.734
8320,1075.66,0.734
8321,1075.75,0.734
8322,1075.83,0.734
8323,1075.91,0.734
8324,1075.99,0.734
8325,1076.07,0.734
8326,1076.16,0.734
8327,1076.23,0.734
8328,1076.33,0.734
8329,1076.41,0.734
8330,1076.49,0.734
8331,1076.58,0.734
8332,1076.66,0.734
8333,1076.74,0.733
8334,1076.82,0.733
8335,1076.91,0.733
8336,1076.99,0.733
8337,1077.08,0.733
8338,1077.16,0.733
8339,1077.23,0.733
8340,1077.32,0.733
8341,1077.41,0.733
8342,1077.49,0.733
8343,1077.57,0.733
8344,1077.66,0.733
8345,1077.74,0.733
8346,1077.82,0.733
8347,1077.91,0.733
8348,1078.00,0.733
8349,1078.08,0.733
8350,1078.16,0.733
8351,1078.24,0.733
8352,1078.32,0.733
8353,1078.40,0.733
8354,1078.48,0.733
8355,1078.58,0.733
8356,1078.66,0.733
8357,1078.74,0.733
8358,1078.82,0.733
8359,1078.91,0.733
8360,1078.99,0.733
8361,1079.07,0.733
8362,1079.15,0.733
8363,1079.25,0.732
8364,1079.32,0.732
8365,1079.40,0.732
8366,1079.50,0.732
8367,1079.57,0.732
8368,1079.66,0.732
8369,1079.75,0.732
8370,1079.83,0.732
8371,1079.91,0.732
8372,1079.99,0.732
8373,1080.08,0.732
8374,1080.16,0.732
8375,1080.24,0.732
8376,1080.33,0.732
8377,1080.41,0.732
8378,1080.49,0.732
8379,1080.57,0.732
8380,1080.66,0.732
8381,1080.74,0.732
8382,1080.82,0.732
8383,1080.91,0.732
8384,1080.99,0.732
8385,1081.07,0.732
8386,1081.15,0.732
8387,1081.24,0.732
8388,1081.32,0.732
8389,1081.41,0.732
8390,1081.50,0.732
8391,1081.57,0.732
8392,1081.65,0.732
8393,1081.74,0.732
8394,1081.83,0.732
8395,1081.91,0.732
8396,1081.99,0.732
8397,1082.08,0.732
8398,1082.16,0.731
8399,1082.23,0.731
8400,1082.32,0.731
8401,1082.40,0.731
8402,1082.49,0.731
8403,1082.58,0.731
8404,1082.66,0.731
8405,1082.74,0.731
8406,1082.82,0.731
8407,1082.91,0.731
8408,1082.99,0.731
8409,1083.07,0.731
8410,1083.16,0.731
8411,1083.24,0.731
8412,1083.32,0.731
8413,1083.41,0.731
8414,1083.50,0.731
8415,1083.57,0.731
8416,1083.65,0.731
8417,1083.74,0.731
8418,1083.83,0.731
8419,1083.91,0.731
8420,1083.99,0.731
8421,1084.08,0.731
8422,1084.16,0.730
8423,1084.25,0.730
8424,1084.33,0.730
8425,1084.41,0.730
8426,1084.49,0.730
8427,1084.57,0.730
8428,1084.66,0.730
8429,1084.74,0.730
8430,1084.82,0.730
8431,1084.91,0.730
8432,1084.99,0.730
8433,1085.07,0.730
8434,1085.16,0.730
8435,1085.24,0.730
8436,1085.32,0.730
8437,1085.41,0.730
8438,1085.49,0.730
8439,1085.57,0.730
8440,1085.66,0.730
8441,1085.74,0.730
8442,1085.82,0.730
8443,1085.91,0.730
8444,1085.99,0.730
8445,1086.08,0.730
8446,1086.16,0.730
8447,1086.24,0.730
8448,1086.32,0.730
8449,1086.40,0.730
8450,1086.49,0.730
8451,1086.57,0.730
8452,1086.65,0.730
8453,1086.74,0.730
8454,1086.82,0.730
8455,1086.91,0.730
8456,1086.99,0.729
8457,1087.08,0.729
8458,1087.16,0.729
8459,1087.24,0.729
8460,1087.33,0.729
8461,1087.41,0.729
8462,1087.49,0.729
8463,1087.58,0.729
8464,1087.66,0.729
8465,1087.74,0.729
8466,1087.83,0.729
8467,1087.92,0.729
8468,1087.99,0.729
8469,1088.06,0.729
8470,1088.16,0.729
8471,1088.25,0.729
8472,1088.33,0.729
8473,1088.41,0.729
8474,1088.50,0.729
8475,1088.57,0.729
8476,1088.66,0.729
8477,1088.73,0.729
8478,1088.82,0.729
8479,1088.91,0.729
8480,1088.99,0.729
8481,1089.08,0.729
8482,1089.16,0.729
8483,1089.24,0.729
8484,1089.32,0.729
8485,1089.41,0.729
8486,1089.49,0.729
8487,1089.58,0.728
8488,1089.66,0.728
8489,1089.74,0.728
8490,1089.83,0.728
8491,1089.91,0.728
8492,1089.99,0.728
8493,1090.07,0.728
8494,1090.16,0.728
8495,1090.25,0.728
8496,1090.33,0.728
8497,1090.40,0.728
8498,1090.48,0.728
8499,1090.57,0.728
8500,1090.66,0.728
8501,1090.74,0.728
8502,1090.82,0.728
8503,1090.90,0.728
8504,1090.99,0.728
8505,1091.07,0.728
8506,1091.16,0.728
8507,1091.24,0.728
8508,1091.32,0.728
8509,1091.41,0.728
8510,1091.49,0.728
8511,1091.58,0.728
8512,1091.66,0.728
8513,1091.74,0.728
8514,1091.82,0.727
8515,1091.91,0.727
8516,1091.99,0.727
8517,1092.07,0.727
8518,1092.15,0.727
8519,1092.24,0.727
8520,1092.32,0.727
8521,1092.41,0.727
8522,1092.49,0.727
8523,1092.57,0.727
8524,1092.65,0.727
8525,1092.74,0.727
8526,1092.83,0.727
8527,1092.90,0.727
8528,1092.99,0.727
8529,1093.07,0.727
8530,1093.16,0.727
8531,1093.24,0.727
8532,1093.32,0.727
8533,1093.41,0.727
8534,1093.50,0.727
8535,1093.58,0.727
8536,1093.65,0.727
8537,1093.74,0.727
8538,1093.82,0.727
8539,1093.91,0.727
8540,1093.99,0.727
8541,1094.07,0.727
8542,1094.16,0.727
8543,1094.24,0.727
8544,1094.33,0.727
8545,1094.41,0.726
8546,1094.49,0.726
8547,1094.57,0.726
8548,1094.65,0.726
8549,1094.74,0.726
8550,1094.82,0.726
8551,1094.90,0.726
8552,1094.99,0.726
8553,1095.08,0.726
8554,1095.15,0.726
8555,1095.24,0.726
8556,1095.32,0.726
8557,1095.41,0.726
8558,1095.50,0.726
8559,1095.57,0.726
8560,1095.66,0.726
8561,1095.75,0.726
8562,1095.82,0.726
8563,1095.90,0.726
8564,1095.98,0.726
8565,1096.08,0.726
8566,1096.17,0.726
8567,1096.24,0.726
8568,1096.32,0.726
8569,1096.41,0.726
8570,1096.50,0.726
8571,1096.58,0.726
8572,1096.66,0.726
8573,1096.73,0.726
8574,1096.83,0.726
8575,1096.91,0.725
8576,1096.99,0.725
8577,1097.07,0.725
8578,1097.16,0.725
8579,1097.24,0.725
8580,1097.33,0.725
8581,1097.41,0.725
8582,1097.49,0.725
8583,1097.57,0.725
8584,1097.66,0.725
8585,1097.74,0.725
8586,1097.83,0.725
8587,1097.91,0.725
8588,1097.99,0.725
8589,1098.08,0.725
8590,1098.16,0.725
8591,1098.24,0.725
8592,1098.32,0.725
8593,1098.40,0.725
8594,1098.48,0.725
8595,1098.57,0.725
8596,1098.66,0.725
8597,1098.74,0.725
8598,1098.82,0.725
8599,1098.91,0.725
8600,1098.99,0.724
8601,1099.07,0.724
8602,1099.16,0.724
8603,1099.25,0.724
8604,1099.32,0.724
8605,1099.40,0.724
8606,1099.50,0.724
8607,1099.57,0.724
8608,1099.66,0.724
8609,1099.75,0.724
8610,1099.82,0.724
8611,1099.91,0.724
8612,1100.00,0.724
8613,1100.08,0.724
8614,1100.16,0.724
8615,1100.24,0.724
8616,1100.33,0.724
8617,1100.41,0.724
8618,1100.49,0.724
8619,1100.57,0.724
8620,1100.65,0.724
8621,1100.74,0.724
8622,1100.83,0.724
8623,1100.90,0.724
8624,1100.99,0.724
8625,1101.08,0.724
8626,1101.16,0.724
8627,1101.24,0.723
8628,1101.33,0.723
8629,1101.42,0.723
8630,1101.49,0.723
8631,1101.57,0.723
8632,1101.65,0.723
8633,1101.74,0.723
8634,1101.83,0.723
8635,1101.90,0.723
8636,1101.99,0.723
8637,1102.07,0.723
8638,1102.16,0.723
8639,1102.24,0.723
8640,1102.33,0.723
8641,1102.41,0.723
8642,1102.49,0.723
8643,1102.57,0.723
8644,1102.66,0.723
8645,1102.75,0.723
8646,1102.83,0.723
8647,1102.90,0.723
8648,1102.99,0.723
8649,1103.07,0.723
8650,1103.16,0.723
8651,1103.25,0.723
8652,1103.32,0.723
8653,1103.41,0.723
8654,1103.50,0.723
8655,1103.57,0.722
8656,1103.66,0.722
8657,1103.75,0.722
8658,1103.82,0.722
8659,1103.90,0.722
8660,1103.99,0.722
8661,1104.07,0.722
8662,1104.16,0.722
8663,1104.24,0.722
8664,1104.32,0.722
8665,1104.40,0.722
8666,1104.49,0.722
8667,1104.57,0.722
8668,1104.66,0.722
8669,1104.74,0.722
8670,1104.82,0.722
8671,1104.91,0.722
8672,1104.99,0.722
8673,1105.07,0.722
8674,1105.16,0.722
8675,1105.25,0.722
8676,1105.32,0.722
8677,1105.40,0.722
8678,1105.49,0.722
8679,1105.58,0.722
8680,1105.65,0.722
8681,1105.74,0.722
8682,1105.83,0.722
8683,1105.91,0.722
8684,1105.99,0.722
8685,1106.07,0.721
8686,1106.15,0.721
8687,1106.24,0.721
8688,1106.33,0.721
8689,1106.41,0.721
8690,1106.48,0.721
8691,1106.58,0.721
8692,1106.66,0.721
8693,1106.73,0.721
8694,1106.83,0.721
8695,1106.90,0.721
8696,1107.00,0.721
8697,1107.07,0.721
8698,1107.15,0.721
8699,1107.24,0.721
8700,1107.32,0.721
8701,1107.41,0.721
8702,1107.50,0.721
8703,1107.57,0.721
8704,1107.65,0.721
8705,1107.74,0.721
8706,1107.82,0.721
8707,1107.91,0.721
8708,1107.99,0.721
8709,1108.08,0.721
8710,1108.15,0.721
8711,1108.23,0.721
8712,1108.32,0.721
8713,1108.41,0.720
8714,1108.49,0.720
8715,1108.57,0.720
8716,1108.65,0.720
8717,1108.74,0.720
8718,1108.82,0.720
8719,1108.91,0.720
8720,1108.99,0.720
8721,1109.08,0.720
8722,1109.15,0.720
8723,1109.24,0.720
8724,1109.33,0.720
8725,1109.41,0.720
8726,1109.49,0.720
8727,1109.58,0.720
8728,1109.66,0.720
8729,1109.74,0.720
8730,1109.83,0.720
8731,1109.91,0.720
8732,1109.99,0.720
8733,1110.07,0.720
8734,1110.15,0.720
8735,1110.24,0.720
8736,1110.33,0.720
8737,1110.41,0.720
8738,1110.48,0.720
8739,1110.57,0.720
8740,1110.66,0.720
8741,1110.74,0.720
8742,1110.82,0.720
8743,1110.91,0.720
8744,1110.99,0.720
8745,1111.07,0.719
8746,1111.16,0.719
8747,1111.24,0.719
8748,1111.32,0.719
8749,1111.41,0.719
8750,1111.49,0.719
8751,1111.57,0.719
8752,1111.66,0.719
8753,1111.74,0.719
8754,1111.82,0.719
8755,1111.91,0.719
8756,1111.98,0.719
8757,1112.07,0.719
8758,1112.16,0.719
8759,1112.23,0.719
8760,1112.32,0.719
8761,1112.41,0.719
8762,1112.49,0.719
8763,1112.57,0.719
8764,1112.66,0.719
8765,1112.74,0.719
8766,1112.83,0.719
8767,1112.90,0.719
8768,1112.99,0.719
8769,1113.08,0.719
8770,1113.16,0.718
8771,1113.24,0.718
8772,1113.33,0.718
8773,1113.41,0.718
8774,1113.49,0.718
8775,1113.57,0.718
8776,1113.66,0.718
8777,1113.74,0.718
8778,1113.83,0.718
8779,1113.90,0.718
8780,1113.98,0.718
8781,1114.08,0.718
8782,1114.16,0.718
8783,1114.24,0.718
8784,1114.32,0.718
8785,1114.41,0.718
8786,1114.50,0.718
8787,1114.57,0.718
8788,1114.65,0.718
8789,1114.74,0.718
8790,1114.82,0.718
8791,1114.91,0.718
8792,1115.00,0.718
8793,1115.07,0.718
8794,1115.16,0.718
8795,1115.25,0.718
8796,1115.33,0.718
8797,1115.41,0.718
8798,1115.49,0.717
8799,1115.57,0.717
8800,1115.66,0.717
8801,1115.74,0.717
8802,1115.82,0.717
8803,1115.90,0.717
8804,1116.00,0.717
8805,1116.08,0.717
8806,1116.15,0.717
8807,1116.24,0.717
8808,1116.33,0.717
8809,1116.40,0.717
8810,1116.49,0.717
8811,1116.58,0.717
8812,1116.65,0.717
8813,1116.74,0.717
8814,1116.82,0.717
8815,1116.91,0.717
8816,1117.00,0.717
8817,1117.07,0.717
8818,1117.15,0.717
8819,1117.23,0.717
8820,1117.32,0.717
8821,1117.40,0.717
8822,1117.48,0.717
8823,1117.58,0.717
8824,1117.66,0.717
8825,1117.74,0.717
8826,1117.82,0.716
8827,1117.91,0.716
8828,1117.99,0.716
8829,1118.08,0.716
8830,1118.16,0.716
8831,1118.24,0.716
8832,1118.32,0.716
8833,1118.41,0.716
8834,1118.49,0.716
8835,1118.57,0.716
8836,1118.66,0.716
8837,1118.75,0.716
8838,1118.82,0.716
8839,1118.90,0.716
8840,1118.99,0.716
8841,1119.08,0.716
8842,1119.16,0.716
8843,1119.24,0.716
8844,1119.33,0.716
8845,1119.41,0.716
8846,1119.49,0.716
8847,1119.57,0.716
8848,1119.65,0.716
8849,1119.74,0.716
8850,1119.82,0.716
8851,1119.90,0.715
8852,1119.99,0.715
8853,1120.08,0.715
8854,1120.15,0.715
8855,1120.24,0.715
8856,1120.33,0.715
8857,1120.41,0.715
8858,1120.49,0.715
8859,1120.58,0.715
8860,1120.66,0.715
8861,1120.74,0.715
8862,1120.83,0.715
8863,1120.91,0.715
8864,1120.99,0.715
8865,1121.07,0.715
8866,1121.15,0.715
8867,1121.23,0.715
8868,1121.32,0.715
8869,1121.41,0.715
8870,1121.48,0.715
8871,1121.57,0.715
8872,1121.66,0.715
8873,1121.74,0.715
8874,1121.83,0.715
8875,1121.91,0.715
8876,1121.99,0.715
8877,1122.07,0.714
8878,1122.16,0.714
8879,1122.23,0.714
8880,1122.32,0.714
8881,1122.40,0.714
8882,1122.49,0.714
8883,1122.58,0.714
8884,1122.65,0.714
8885,1122.73,0.714
8886,1122.82,0.714
8887,1122.91,0.714
8888,1122.99,0.714
8889,1123.07,0.714
8890,1123.15,0.714
8891,1123.24,0.714
8892,1123.32,0.714
8893,1123.41,0.714
8894,1123.49,0.714
8895,1123.57,0.714
8896,1123.66,0.714
8897,1123.74,0.714
8898,1123.82,0.714
8899,1123.91,0.714
8900,1124.00,0.713
8901,1124.07,0.713
8902,1124.15,0.713
8903,1124.24,0.713
8904,1124.33,0.713
8905,1124.41,0.713
8906,1124.49,0.713
8907,1124.57,0.713
8908,1124.65,0.713
8909,1124.74,0.713
8910,1124.82,0.713
8911,1124.91,0.713
8912,1125.00,0.713
8913,1125.07,0.713
8914,1125.15,0.713
8915,1125.24,0.713
8916,1125.33,0.713
8917,1125.41,0.713
8918,1125.48,0.713
8919,1125.57,0.713
8920,1125.66,0.713
8921,1125.74,0.713
8922,1125.82,0.713
8923,1125.91,0.713
8924,1125.99,0.712
8925,1126.07,0.712
8926,1126.15,0.712
8927,1126.24,0.712
8928,1126.33,0.712
8929,1126.41,0.712
8930,1126.50,0.712
8931,1126.57,0.712
8932,1126.65,0.712
8933,1126.74,0.712
8934,1126.82,0.712
8935,1126.90,0.712
8936,1126.99,0.712
8937,1127.08,0.712
8938,1127.16,0.712
8939,1127.23,0.712
8940,1127.33,0.712
8941,1127.41,0.712
8942,1127.49,0.712
8943,1127.58,0.712
8944,1127.66,0.712
8945,1127.74,0.712
8946,1127.83,0.712
8947,1127.91,0.712
8948,1127.99,0.712
8949,1128.07,0.712
8950,1128.15,0.712
8951,1128.24,0.711
8952,1128.32,0.711
8953,1128.40,0.711
8954,1128.48,0.711
8955,1128.57,0.711
8956,1128.66,0.711
8957,1128.74,0.711
8958,1128.82,0.711
8959,1128.91,0.711
8960,1128.99,0.711
8961,1129.07,0.711
8962,1129.16,0.711
8963,1129.25,0.711
8964,1129.32,0.711
8965,1129.41,0.711
8966,1129.49,0.711
8967,1129.58,0.711
8968,1129.65,0.711
8969,1129.74,0.711
8970,1129.82,0.711
8971,1129.91,0.711
8972,1129.99,0.711
8973,1130.08,0.710
8974,1130.16,0.710
8975,1130.24,0.710
8976,1130.32,0.710
8977,1130.40,0.710
8978,1130.49,0.710
8979,1130.57,0.710
8980,1130.65,0.710
8981,1130.74,0.710
8982,1130.82,0.710
8983,1130.90,0.710
8984,1130.99,0.710
8985,1131.08,0.710
8986,1131.15,0.710
8987,1131.24,0.710
8988,1131.32,0.710
8989,1131.41,0.710
8990,1131.49,0.710
8991,1131.57,0.710
8992,1131.65,0.709
8993,1131.73,0.709
8994,1131.82,0.709
8995,1131.90,0.709
8996,1131.98,0.709
8997,1132.08,0.709
8998,1132.16,0.709
8999,1132.24,0.709
9000,1132.33,0.709
9001,1132.41,0.709
9002,1132.48,0.709
9003,1132.57,0.709
9004,1132.66,0.709
9005,1132.74,0.709
9006,1132.82,0.709
9007,1132.91,0.709
9008,1132.99,0.709
9009,1133.07,0.709
9010,1133.15,0.709
9011,1133.24,0.709
9012,1133.32,0.709
9013,1133.40,0.709
9014,1133.48,0.709
9015,1133.58,0.708
9016,1133.66,0.708
9017,1133.74,0.708
9018,1133.82,0.708
9019,1133.91,0.708
9020,1133.99,0.708
9021,1134.07,0.708
9022,1134.16,0.708
9023,1134.24,0.708
9024,1134.32,0.708
9025,1134.41,0.708
9026,1134.49,0.708
9027,1134.57,0.708
9028,1134.65,0.708
9029,1134.74,0.708
9030,1134.83,0.708
9031,1134.91,0.708
9032,1134.98,0.708
9033,1135.06,0.708
9034,1135.16,0.708
9035,1135.24,0.708
9036,1135.33,0.708
9037,1135.40,0.708
9038,1135.49,0.707
9039,1135.57,0.707
9040,1135.65,0.707
9041,1135.74,0.707
9042,1135.82,0.707
9043,1135.90,0.707
9044,1135.99,0.707
9045,1136.08,0.707
9046,1136.15,0.707
9047,1136.23,0.707
9048,1136.32,0.707
9049,1136.41,0.707
9050,1136.50,0.707
9051,1136.58,0.707
9052,1136.65,0.707
9053,1136.73,0.707
9054,1136.82,0.707
9055,1136.91,0.707
9056,1136.99,0.707
9057,1137.07,0.707
9058,1137.15,0.707
9059,1137.24,0.707
9060,1137.33,0.707
9061,1137.40,0.707
9062,1137.49,0.707
9063,1137.58,0.706
9064,1137.66,0.706
9065,1137.74,0.706
9066,1137.82,0.706
9067,1137.90,0.706
9068,1137.99,0.706
9069,1138.08,0.706
9070,1138.15,0.706
9071,1138.24,0.706
9072,1138.32,0.706
9073,1138.41,0.706
9074,1138.49,0.706
9075,1138.57,0.706
9076,1138.65,0.706
9077,1138.74,0.706
9078,1138.83,0.706
9079,1138.91,0.706
9080,1138.98,0.706
9081,1139.07,0.706
9082,1139.16,0.706
9083,1139.23,0.706
9084,1139.32,0.706
9085,1139.41,0.706
9086,1139.49,0.706
9087,1139.57,0.706
9088,1139.66,0.705
9089,1139.74,0.705
9090,1139.82,0.705
9091,1139.91,0.705
9092,1139.99,0.705
9093,1140.08,0.705
9094,1140.16,0.705
9095,1140.24,0.705
9096,1140.32,0.705
9097,1140.40,0.705
9098,1140.49,0.705
9099,1140.57,0.705
9100,1140.65,0.705
9101,1140.73,0.705
9102,1140.83,0.705
9103,1140.91,0.705
9104,1140.98,0.705
9105,1141.07,0.705
9106,1141.16,0.705
9107,1141.24,0.705
9108,1141.32,0.705
9109,1141.41,0.705
9110,1141.50,0.705
9111,1141.57,0.704
9112,1141.65,0.704
9113,1141.74,0.704
9114,1141.82,0.704
9115,1141.90,0.704
9116,1141.99,0.704
9117,1142.07,0.704
9118,1142.15,0.704
9119,1142.24,0.704
9120,1142.33,0.704
9121,1142.40,0.704
9122,1142.49,0.704
9123,1142.58,0.704
9124,1142.65,0.704
9125,1142.74,0.704
9126,1142.83,0.704
9127,1142.90,0.704
9128,1142.99,0.704
9129,1143.07,0.704
9130,1143.16,0.704
9131,1143.24,0.704
9132,1143.33,0.703
9133,1143.41,0.703
9134,1143.49,0.703
9135,1143.57,0.703
9136,1143.65,0.703
9137,1143.73,0.703
9138,1143.82,0.703
9139,1143.91,0.703
9140,1143.98,0.703
9141,1144.07,0.703
9142,1144.15,0.703
9143,1144.24,0.703
9144,1144.33,0.703
9145,1144.40,0.703
9146,1144.49,0.703
9147,1144.58,0.703
9148,1144.66,0.703
9149,1144.73,0.703
9150,1144.82,0.703
9151,1144.90,0.703
9152,1144.99,0.703
9153,1145.07,0.702
9154,1145.15,0.702
9155,1145.23,0.702
9156,1145.32,0.702
9157,1145.40,0.702
9158,1145.49,0.702
9159,1145.57,0.702
9160,1145.65,0.702
9161,1145.74,0.702
9162,1145.82,0.702
9163,1145.91,0.702
9164,1145.99,0.702
9165,1146.07,0.702
9166,1146.16,0.702
9167,1146.24,0.702
9168,1146.33,0.702
9169,1146.41,0.702
9170,1146.49,0.702
9171,1146.57,0.702
9172,1146.66,0.702
9173,1146.74,0.702
9174,1146.82,0.702
9175,1146.90,0.702
9176,1146.98,0.701
9177,1147.07,0.701
9178,1147.15,0.701
9179,1147.24,0.701
9180,1147.32,0.701
9181,1147.40,0.701
9182,1147.49,0.701
9183,1147.57,0.701
9184,1147.66,0.701
9185,1147.74,0.701
9186,1147.82,0.701
9187,1147.90,0.701
9188,1147.99,0.701
9189,1148.08,0.701
9190,1148.16,0.701
9191,1148.24,0.701
9192,1148.32,0.701
9193,1148.40,0.701
9194,1148.49,0.701
9195,1148.58,0.701
9196,1148.66,0.701
9197,1148.73,0.700
9198,1148.82,0.700
9199,1148.91,0.700
9200,1148.99,0.700
9201,1149.07,0.700
9202,1149.16,0.700
9203,1149.24,0.700
9204,1149.32,0.700
9205,1149.40,0.700
9206,1149.50,0.700
9207,1149.57,0.700
9208,1149.65,0.700
9209,1149.74,0.700
9210,1149.82,0.700
9211,1149.91,0.700
9212,1149.99,0.700
9213,1150.08,0.700
9214,1150.16,0.700
9215,1150.23,0.700
9216,1150.32,0.699
9217,1150.41,0.699
9218,1150.48,0.699
9219,1150.57,0.699
9220,1150.66,0.699
9221,1150.73,0.699
9222,1150.83,0.699
9223,1150.91,0.699
9224,1150.99,0.699
9225,1151.08,0.699
9226,1151.16,0.699
9227,1151.24,0.699
9228,1151.33,0.699
9229,1151.41,0.699
9230,1151.49,0.699
9231,1151.57,0.699
9232,1151.65,0.699
9233,1151.74,0.699
9234,1151.82,0.699
9235,1151.91,0.699
9236,1152.00,0.699
9237,1152.07,0.698
9238,1152.15,0.698
9239,1152.24,0.698
9240,1152.32,0.698
9241,1152.40,0.698
9242,1152.50,0.698
9243,1152.57,0.698
9244,1152.65,0.698
9245,1152.74,0.698
9246,1152.83,0.698
9247,1152.90,0.698
9248,1152.99,0.698
9249,1153.08,0.698
9250,1153.16,0.698
9251,1153.24,0.698
9252,1153.32,0.698
9253,1153.40,0.698
9254,1153.48,0.698
9255,1153.57,0.698
9256,1153.66,0.698
9257,1153.74,0.698
9258,1153.82,0.697
9259,1153.91,0.697
9260,1153.99,0.697
9261,1154.07,0.697
9262,1154.15,0.697
9263,1154.25,0.697
9264,1154.32,0.697
9265,1154.41,0.697
9266,1154.49,0.697
9267,1154.57,0.697
9268,1154.66,0.697
9269,1154.74,0.697
9270,1154.82,0.697
9271,1154.91,0.697
9272,1154.99,0.697
9273,1155.08,0.697
9274,1155.16,0.697
9275,1155.24,0.697
9276,1155.31,0.697
9277,1155.40,0.697
9278,1155.49,0.696
9279,1155.57,0.696
9280,1155.65,0.696
9281,1155.73,0.696
9282,1155.83,0.696
9283,1155.91,0.696
9284,1155.98,0.696
9285,1156.07,0.696
9286,1156.16,0.696
9287,1156.25,0.696
9288,1156.32,0.696
9289,1156.40,0.696
9290,1156.48,0.696
9291,1156.58,0.696
9292,1156.67,0.696
9293,1156.74,0.696
9294,1156.81,0.696
9295,1156.91,0.696
9296,1156.99,0.696
9297,1157.07,0.696
9298,1157.16,0.695
9299,1157.24,0.695
9300,1157.32,0.695
9301,1157.41,0.695
9302,1157.49,0.695
9303,1157.58,0.695
9304,1157.66,0.695
9305,1157.74,0.695
9306,1157.82,0.695
9307,1157.91,0.695
9308,1157.99,0.695
9309,1158.08,0.695
9310,1158.16,0.695
9311,1158.24,0.695
9312,1158.32,0.695
9313,1158.39,0.695
9314,1158.49,0.695
9315,1158.57,0.695
9316,1158.65,0.695
9317,1158.73,0.694
9318,1158.82,0.694
9319,1158.90,0.694
9320,1158.99,0.694
9321,1159.08,0.694
9322,1159.16,0.694
9323,1159.24,0.694
9324,1159.33,0.694
9325,1159.41,0.694
9326,1159.49,0.694
9327,1159.57,0.694
9328,1159.66,0.694
9329,1159.74,0.694
9330,1159.82,0.694
9331,1159.90,0.694
9332,1159.98,0.694
9333,1160.07,0.694
9334,1160.16,0.694
9335,1160.24,0.694
9336,1160.32,0.694
9337,1160.41,0.694
9338,1160.49,0.693
9339,1160.58,0.693
9340,1160.66,0.693
9341,1160.73,0.693
9342,1160.82,0.693
9343,1160.92,0.693
9344,1160.99,0.693
9345,1161.07,0.693
9346,1161.15,0.693
9347,1161.24,0.693
9348,1161.33,0.693
9349,1161.41,0.693
9350,1161.49,0.693
9351,1161.58,0.693
9352,1161.66,0.693
9353,1161.73,0.693
9354,1161.82,0.693
9355,1161.90,0.693
9356,1161.99,0.693
9357,1162.07,0.692
9358,1162.15,0.692
9359,1162.24,0.692
9360,1162.32,0.692
9361,1162.41,0.692
9362,1162.49,0.692
9363,1162.57,0.692
9364,1162.65,0.692
9365,1162.74,0.692
9366,1162.83,0.692
9367,1162.91,0.692
9368,1162.99,0.692
9369,1163.07,0.692
9370,1163.15,0.692
9371,1163.23,0.692
9372,1163.32,0.692
9373,1163.41,0.692
9374,1163.49,0.692
9375,1163.57,0.692
9376,1163.66,0.691
9377,1163.74,0.691
9378,1163.82,0.691
9379,1163.91,0.691
9380,1163.99,0.691
9381,1164.07,0.691
9382,1164.16,0.691
9383,1164.25,0.691
9384,1164.32,0.691
9385,1164.40,0.691
9386,1164.49,0.691
9387,1164.57,0.691
9388,1164.66,0.691
9389,1164.75,0.691
9390,1164.83,0.691
9391,1164.91,0.691
9392,1164.98,0.691
9393,1165.07,0.691
9394,1165.16,0.691
9395,1165.24,0.690
9396,1165.32,0.690
9397,1165.41,0.690
9398,1165.49,0.690
9399,1165.57,0.690
9400,1165.66,0.690
9401,1165.74,0.690
9402,1165.83,0.690
9403,1165.91,0.690
9404,1165.99,0.690
9405,1166.07,0.690
9406,1166.16,0.690
9407,1166.24,0.690
9408,1166.32,0.690
9409,1166.40,0.690
9410,1166.48,0.690
9411,1166.57,0.690
9412,1166.65,0.690
9413,1166.74,0.690
9414,1166.82,0.689
9415,1166.91,0.689
9416,1166.98,0.689
9417,1167.07,0.689
9418,1167.16,0.689
9419,1167.24,0.689
9420,1167.32,0.689
9421,1167.41,0.689
9422,1167.49,0.689
9423,1167.58,0.689
9424,1167.66,0.689
9425,1167.74,0.689
9426,1167.82,0.689
9427,1167.90,0.689
9428,1167.98,0.689
9429,1168.07,0.689
9430,1168.16,0.689
9431,1168.24,0.689
9432,1168.32,0.688
9433,1168.41,0.688
9434,1168.49,0.688
9435,1168.57,0.688
9436,1168.66,0.688
9437,1168.74,0.688
9438,1168.82,0.688
9439,1168.91,0.688
9440,1168.99,0.688
9441,1169.07,0.688
9442,1169.16,0.688
9443,1169.25,0.688
9444,1169.32,0.688
9445,1169.40,0.688
9446,1169.48,0.688
9447,1169.57,0.688
9448,1169.66,0.688
9449,1169.74,0.688
9450,1169.82,0.687
9451,1169.90,0.687
9452,1169.99,0.687
9453,1170.07,0.687
9454,1170.16,0.687
9455,1170.24,0.687
9456,1170.32,0.687
9457,1170.41,0.687
9458,1170.49,0.687
9459,1170.57,0.687
9460,1170.66,0.687
9461,1170.75,0.687
9462,1170.82,0.687
9463,1170.90,0.687
9464,1170.99,0.687
9465,1171.07,0.687
9466,1171.15,0.686
9467,1171.23,0.686
9468,1171.32,0.686
9469,1171.41,0.686
9470,1171.49,0.686
9471,1171.57,0.686
9472,1171.66,0.686
9473,1171.74,0.686
9474,1171.82,0.686
9475,1171.91,0.686
9476,1171.99,0.686
9477,1172.07,0.686
9478,1172.16,0.686
9479,1172.24,0.686