Time (s),Temperature (K),Weight (mg)
0,383.15,5.006
1,383.15,5.006
2,383.15,5.006
3,383.15,5.006
4,383.15,5.006
5,383.15,5.006
6,383.15,5.006
7,383.15,5.006
8,383.15,5.006
9,383.16,5.006
10,383.18,5.007
11,383.26,5.007
12,383.36,5.007
13,383.46,5.007
14,383.59,5.007
15,383.74,5.007
16,383.86,5.007
17,383.99,5.007
18,384.13,5.007
19,384.27,5.007
20,384.40,5.007
21,384.54,5.007
22,384.68,5.007
23,384.82,5.008
24,384.96,5.008
25,385.10,5.008
26,385.24,5.008
27,385.38,5.008
28,385.53,5.008
29,385.66,5.008
30,385.81,5.008
31,385.95,5.008
32,386.10,5.008
33,386.26,5.008
34,386.40,5.008
35,386.55,5.008
36,386.70,5.008
37,386.84,5.008
38,386.99,5.008
39,387.15,5.008
40,387.30,5.008
41,387.45,5.008
42,387.60,5.008
43,387.76,5.008
44,387.91,5.008
45,388.06,5.008
46,388.22,5.008
47,388.37,5.008
48,388.53,5.008
49,388.69,5.008
50,388.84,5.008
51,389.00,5.008
52,389.15,5.008
53,389.31,5.008
54,389.47,5.008
55,389.63,5.008
56,389.79,5.008
57,389.94,5.008
58,390.11,5.008
59,390.27,5.008
60,390.43,5.008
61,390.59,5.008
62,390.75,5.008
63,390.91,5.008
64,391.07,5.008
65,391.22,5.008
66,391.39,5.008
67,391.55,5.008
68,391.72,5.008
69,391.88,5.008
70,392.04,5.008
71,392.20,5.008
72,392.36,5.008
73,392.52,5.008
74,392.69,5.008
75,392.85,5.008
76,393.02,5.008
77,393.18,5.008
78,393.35,5.008
79,393.51,5.008
80,393.67,5.007
81,393.84,5.007
82,394.01,5.007
83,394.17,5.007
84,394.34,5.007
85,394.50,5.007
86,394.66,5.007
87,394.82,5.007
88,394.99,5.007
89,395.16,5.007
90,395.32,5.007
91,395.49,5.007
92,395.65,5.007
93,395.82,5.007
94,395.99,5.007
95,396.15,5.007
96,396.31,5.007
97,396.48,5.007
98,396.65,5.007
99,396.81,5.007
100,396.98,5.007
101,397.15,5.007
102,397.31,5.007
103,397.48,5.007
104,397.65,5.007
105,397.81,5.007
106,397.98,5.007
107,398.15,5.007
108,398.31,5.007
109,398.47,5.007
110,398.64,5.007
111,398.81,5.007
112,398.98,5.007
113,399.15,5.007
114,399.31,5.007
115,399.48,5.007
116,399.64,5.007
117,399.81,5.007
118,399.98,5.007
119,400.15,5.007
120,400.31,5.007
121,400.48,5.007
122,400.65,5.007
123,400.81,5.007
124,400.98,5.007
125,401.14,5.007
126,401.31,5.007
127,401.48,5.007
128,401.65,5.007
129,401.82,5.007
130,401.98,5.007
131,402.15,5.007
132,402.32,5.007
133,402.48,5.007
134,402.65,5.007
135,402.82,5.007
136,402.99,5.007
137,403.16,5.007
138,403.31,5.007
139,403.48,5.007
140,403.65,5.007
141,403.82,5.007
142,403.99,5.007
143,404.16,5.006
144,404.33,5.006
145,404.50,5.006
146,404.66,5.006
147,404.83,5.006
148,404.99,5.006
149,405.15,5.006
150,405.33,5.006
151,405.50,5.006
152,405.67,5.006
153,405.83,5.006
154,405.99,5.006
155,406.16,5.006
156,406.33,5.006
157,406.50,5.006
158,406.67,5.006
159,406.84,5.006
160,407.01,5.006
161,407.17,5.006
162,407.34,5.006
163,407.51,5.006
164,407.68,5.006
165,407.84,5.006
166,408.01,5.006
167,408.18,5.006
168,408.34,5.006
169,408.51,5.006
170,408.68,5.006
171,408.85,5.006
172,409.02,5.006
173,409.19,5.006
174,409.36,5.006
175,409.52,5.006
176,409.69,5.006
177,409.85,5.006
178,410.02,5.006
179,410.19,5.006
180,410.36,5.006
181,410.53,5.006
182,410.70,5.006
183,410.86,5.005
184,411.03,5.005
185,411.20,5.005
186,411.37,5.005
187,411.53,5.005
188,411.70,5.005
189,411.86,5.005
190,412.03,5.005
191,412.20,5.005
192,412.38,5.005
193,412.55,5.005
194,412.71,5.005
195,412.87,5.005
196,413.03,5.005
197,413.20,5.005
198,413.37,5.005
199,413.54,5.005
200,413.72,5.005
201,413.89,5.005
202,414.05,5.005
203,414.21,5.005
204,414.38,5.005
205,414.55,5.005
206,414.72,5.005
207,414.89,5.005
208,415.05,5.005
209,415.22,5.005
210,415.39,5.005
211,415.56,5.004
212,415.72,5.004
213,415.89,5.004
214,416.06,5.004
215,416.23,5.004
216,416.40,5.004
217,416.57,5.004
218,416.74,5.004
219,416.90,5.004
220,417.06,5.004
221,417.23,5.004
222,417.40,5.004
223,417.57,5.004
224,417.74,5.004
225,417.91,5.004
226,418.08,5.004
227,418.25,5.004
228,418.41,5.004
229,418.57,5.004
230,418.74,5.004
231,418.92,5.004
232,419.09,5.004
233,419.25,5.004
234,419.42,5.003
235,419.58,5.003
236,419.75,5.003
237,419.92,5.003
238,420.10,5.003
239,420.27,5.003
240,420.43,5.003
241,420.59,5.003
242,420.76,5.003
243,420.93,5.003
244,421.09,5.003
245,421.26,5.003
246,421.43,5.003
247,421.60,5.003
248,421.77,5.003
249,421.93,5.003
250,422.10,5.003
251,422.27,5.003
252,422.43,5.003
253,422.60,5.002
254,422.77,5.002
255,422.94,5.002
256,423.11,5.002
257,423.28,5.002
258,423.45,5.002
259,423.61,5.002
260,423.78,5.002
261,423.95,5.002
262,424.12,5.002
263,424.28,5.002
264,424.45,5.002
265,424.62,5.002
266,424.79,5.002
267,424.96,5.002
268,425.12,5.002
269,425.29,5.001
270,425.46,5.001
271,425.63,5.001
272,425.80,5.001
273,425.96,5.001
274,426.13,5.001
275,426.30,5.001
276,426.47,5.001
277,426.63,5.001
278,426.81,5.001
279,426.97,5.001
280,427.14,5.001
281,427.31,5.001
282,427.47,5.001
283,427.64,5.001
284,427.80,5.000
285,427.98,5.000
286,428.15,5.000
287,428.31,5.000
288,428.47,5.000
289,428.64,5.000
290,428.81,5.000
291,428.98,5.000
292,429.15,5.000
293,429.31,5.000
294,429.48,5.000
295,429.65,5.000
296,429.82,5.000
297,429.99,4.999
298,430.15,4.999
299,430.31,4.999
300,430.49,4.999
301,430.65,4.999
302,430.82,4.999
303,430.98,4.999
304,431.16,4.999
305,431.32,4.999
306,431.49,4.999
307,431.66,4.999
308,431.82,4.999
309,431.99,4.998
310,432.16,4.998
311,432.32,4.998
312,432.49,4.998
313,432.66,4.998
314,432.83,4.998
315,432.99,4.998
316,433.16,4.998
317,433.33,4.998
318,433.50,4.998
319,433.67,4.998
320,433.83,4.997
321,434.00,4.997
322,434.16,4.997
323,434.33,4.997
324,434.50,4.997
325,434.67,4.997
326,434.84,4.997
327,435.01,4.997
328,435.17,4.997
329,435.34,4.997
330,435.50,4.997
331,435.67,4.996
332,435.84,4.996
333,436.01,4.996
334,436.18,4.996
335,436.35,4.996
336,436.51,4.996
337,436.68,4.996
338,436.84,4.996
339,437.00,4.996
340,437.18,4.995
341,437.35,4.995
342,437.52,4.995
343,437.69,4.995
344,437.86,4.995
345,438.01,4.995
346,438.18,4.995
347,438.34,4.995
348,438.51,4.995
349,438.68,4.995
350,438.86,4.994
351,439.02,4.994
352,439.19,4.994
353,439.36,4.994
354,439.52,4.994
355,439.68,4.994
356,439.85,4.994
357,440.02,4.994
358,440.20,4.994
359,440.36,4.994
360,440.52,4.993
361,440.69,4.993
362,440.86,4.993
363,441.03,4.993
364,441.19,4.993
365,441.36,4.993
366,441.53,4.993
367,441.70,4.993
368,441.87,4.992
369,442.03,4.992
370,442.19,4.992
371,442.36,4.992
372,442.54,4.992
373,442.71,4.992
374,442.87,4.992
375,443.03,4.992
376,443.20,4.992
377,443.36,4.991
378,443.53,4.991
379,443.70,4.991
380,443.88,4.991
381,444.04,4.991
382,444.21,4.991
383,444.37,4.991
384,444.54,4.991
385,444.70,4.990
386,444.88,4.990
387,445.05,4.990
388,445.22,4.990
389,445.38,4.990
390,445.55,4.990
391,445.71,4.990
392,445.88,4.989
393,446.05,4.989
394,446.22,4.989
395,446.39,4.989
396,446.55,4.989
397,446.72,4.989
398,446.88,4.989
399,447.05,4.988
400,447.22,4.988
401,447.39,4.988
402,447.56,4.988
403,447.73,4.988
404,447.89,4.988
405,448.06,4.988
406,448.22,4.987
407,448.39,4.987
408,448.56,4.987
409,448.73,4.987
410,448.89,4.987
411,449.06,4.987
412,449.23,4.987
413,449.39,4.986
414,449.56,4.986
415,449.73,4.986
416,449.90,4.986
417,450.07,4.986
418,450.23,4.986
419,450.40,4.985
420,450.57,4.985
421,450.73,4.985
422,450.89,4.985
423,451.06,4.985
424,451.24,4.985
425,451.41,4.984
426,451.57,4.984
427,451.74,4.984
428,451.90,4.984
429,452.07,4.984
430,452.24,4.984
431,452.41,4.983
432,452.58,4.983
433,452.74,4.983
434,452.91,4.983
435,453.07,4.983
436,453.24,4.982
437,453.41,4.982
438,453.58,4.982
439,453.75,4.982
440,453.91,4.982
441,454.08,4.981
442,454.24,4.981
443,454.41,4.981
444,454.58,4.981
445,454.75,4.981
446,454.92,4.981
447,455.09,4.980
448,455.25,4.980
449,455.42,4.980
450,455.58,4.980
451,455.76,4.980
452,455.93,4.979
453,456.09,4.979
454,456.25,4.979
455,456.42,4.979
456,456.59,4.979
457,456.76,4.978
458,456.93,4.978
459,457.09,4.978
460,457.25,4.978
461,457.43,4.978
462,457.60,4.977
463,457.76,4.977
464,457.93,4.977
465,458.10,4.977
466,458.26,4.976
467,458.43,4.976
468,458.59,4.976
469,458.77,4.976
470,458.94,4.976
471,459.10,4.975
472,459.27,4.975
473,459.43,4.975
474,459.60,4.975
475,459.77,4.974
476,459.94,4.974
477,460.11,4.974
478,460.27,4.974
479,460.44,4.974
480,460.60,4.973
481,460.77,4.973
482,460.94,4.973
483,461.11,4.973
484,461.27,4.972
485,461.44,4.972
486,461.61,4.972
487,461.78,4.972
488,461.94,4.971
489,462.11,4.971
490,462.28,4.971
491,462.45,4.971
492,462.62,4.970
493,462.78,4.970
494,462.95,4.970
495,463.11,4.970
496,463.28,4.969
497,463.45,4.969
498,463.62,4.969
499,463.79,4.969
500,463.95,4.969
501,464.11,4.968
502,464.28,4.968
503,464.45,4.968
504,464.63,4.967
505,464.80,4.967
506,464.96,4.967
507,465.13,4.967
508,465.29,4.966
509,465.45,4.966
510,465.62,4.966
511,465.79,4.966
512,465.97,4.965
513,466.13,4.965
514,466.30,4.965
515,466.46,4.965
516,466.62,4.964
517,466.79,4.964
518,466.97,4.964
519,467.14,4.964
520,467.30,4.963
521,467.46,4.963
522,467.63,4.963
523,467.79,4.962
524,467.96,4.962
525,468.14,4.962
526,468.31,4.962
527,468.48,4.961
528,468.64,4.961
529,468.80,4.961
530,468.97,4.960
531,469.14,4.960
532,469.31,4.960
533,469.47,4.960
534,469.64,4.959
535,469.81,4.959
536,469.98,4.959
537,470.15,4.958
538,470.31,4.958
539,470.48,4.958
540,470.64,4.957
541,470.81,4.957
542,470.98,4.957
543,471.15,4.957
544,471.32,4.956
545,471.48,4.956
546,471.65,4.956
547,471.82,4.955
548,471.98,4.955
549,472.15,4.955
550,472.32,4.954
551,472.49,4.954
552,472.66,4.954
553,472.82,4.953
554,472.99,4.953
555,473.15,4.953
556,473.32,4.953
557,473.49,4.952
558,473.66,4.952
559,473.83,4.952
560,473.99,4.951
561,474.16,4.951
562,474.32,4.951
563,474.49,4.950
564,474.66,4.950
565,474.83,4.950
566,475.00,4.949
567,475.17,4.949
568,475.33,4.949
569,475.49,4.948
570,475.66,4.948
571,475.83,4.947
572,476.00,4.947
573,476.17,4.947
574,476.33,4.946
575,476.50,4.946
576,476.67,4.946
577,476.83,4.945
578,477.00,4.945
579,477.17,4.945
580,477.34,4.944
581,477.51,4.944
582,477.68,4.944
583,477.84,4.943
584,478.01,4.943
585,478.18,4.943
586,478.34,4.942
587,478.51,4.942
588,478.68,4.941
589,478.85,4.941
590,479.02,4.941
591,479.18,4.940
592,479.35,4.940
593,479.51,4.940
594,479.68,4.939
595,479.85,4.939
596,480.02,4.938
597,480.19,4.938
598,480.35,4.938
599,480.51,4.937
600,480.69,4.937
601,480.85,4.937
602,481.02,4.936
603,481.19,4.936
604,481.36,4.935
605,481.53,4.935
606,481.69,4.935
607,481.86,4.934
608,482.02,4.934
609,482.19,4.933
610,482.36,4.933
611,482.53,4.933
612,482.69,4.932
613,482.86,4.932
614,483.03,4.931
615,483.20,4.931
616,483.36,4.931
617,483.53,4.930
618,483.70,4.930
619,483.86,4.929
620,484.03,4.929
621,484.20,4.929
622,484.36,4.928
623,484.53,4.928
624,484.70,4.927
625,484.87,4.927
626,485.03,4.926
627,485.20,4.926
628,485.37,4.926
629,485.54,4.925
630,485.70,4.925
631,485.87,4.924
632,486.04,4.924
633,486.20,4.923
634,486.37,4.923
635,486.53,4.922
636,486.71,4.922
637,486.88,4.922
638,487.05,4.921
639,487.21,4.921
640,487.38,4.920
641,487.55,4.920
642,487.71,4.919
643,487.88,4.919
644,488.05,4.918
645,488.22,4.918
646,488.38,4.917
647,488.55,4.917
648,488.72,4.916
649,488.88,4.915
650,489.05,4.915
651,489.22,4.914
652,489.38,4.914
653,489.55,4.913
654,489.72,4.913
655,489.89,4.912
656,490.05,4.912
657,490.22,4.911
658,490.39,4.910
659,490.56,4.910
660,490.72,4.909
661,490.89,4.909
662,491.06,4.908
663,491.23,4.908
664,491.39,4.907
665,491.56,4.906
666,491.73,4.906
667,491.90,4.905
668,492.07,4.905
669,492.23,4.904
670,492.40,4.904
671,492.56,4.903
672,492.73,4.903
673,492.90,4.902
674,493.07,4.902
675,493.23,4.901
676,493.40,4.901
677,493.57,4.900
678,493.73,4.900
679,493.90,4.899
680,494.07,4.899
681,494.24,4.898
682,494.41,4.897
683,494.57,4.897
684,494.74,4.896
685,494.90,4.896
686,495.08,4.895
687,495.24,4.895
688,495.41,4.894
689,495.58,4.894
690,495.75,4.893
691,495.91,4.893
692,496.08,4.892
693,496.25,4.892
694,496.42,4.891
695,496.58,4.890
696,496.75,4.890
697,496.92,4.889
698,497.08,4.889
699,497.26,4.888
700,497.42,4.888
701,497.59,4.887
702,497.75,4.886
703,497.92,4.886
704,498.09,4.885
705,498.25,4.885
706,498.43,4.884
707,498.59,4.883
708,498.75,4.883
709,498.92,4.882
710,499.08,4.882
711,499.25,4.881
712,499.43,4.881
713,499.59,4.880
714,499.76,4.879
715,499.93,4.879
716,500.09,4.878
717,500.26,4.878
718,500.43,4.877
719,500.60,4.876
720,500.77,4.876
721,500.93,4.875
722,501.10,4.874
723,501.26,4.874
724,501.43,4.873
725,501.60,4.873
726,501.77,4.872
727,501.94,4.871
728,502.11,4.871
729,502.28,4.870
730,502.44,4.869
731,502.60,4.869
732,502.77,4.868
733,502.94,4.867
734,503.11,4.867
735,503.28,4.866
736,503.44,4.865
737,503.61,4.865
738,503.78,4.864
739,503.94,4.863
740,504.11,4.863
741,504.28,4.862
742,504.45,4.861
743,504.61,4.861
744,504.78,4.860
745,504.94,4.859
746,505.11,4.859
747,505.28,4.858
748,505.45,4.857
749,505.62,4.857
750,505.79,4.856
751,505.95,4.855
752,506.11,4.854
753,506.28,4.854
754,506.45,4.853
755,506.62,4.852
756,506.79,4.851
757,506.96,4.851
758,507.12,4.850
759,507.29,4.849
760,507.45,4.848
761,507.62,4.848
762,507.79,4.847
763,507.96,4.846
764,508.13,4.845
765,508.30,4.845
766,508.46,4.844
767,508.62,4.843
768,508.79,4.842
769,508.96,4.841
770,509.13,4.840
771,509.30,4.839
772,509.47,4.838
773,509.63,4.838
774,509.80,4.837
775,509.96,4.836
776,510.13,4.836
777,510.30,4.835
778,510.47,4.834
779,510.64,4.834
780,510.81,4.833
781,510.97,4.832
782,511.13,4.831
783,511.30,4.831
784,511.47,4.830
785,511.64,4.829
786,511.81,4.828
787,511.97,4.827
788,512.14,4.826
789,512.31,4.825
790,512.48,4.824
791,512.65,4.823
792,512.81,4.822
793,512.97,4.821
794,513.15,4.820
795,513.32,4.819
796,513.48,4.818
797,513.65,4.817
798,513.81,4.816
799,513.98,4.815
800,514.15,4.815
801,514.32,4.814
802,514.49,4.813
803,514.66,4.813
804,514.82,4.812
805,514.98,4.811
806,515.15,4.811
807,515.32,4.810
808,515.49,4.809
809,515.65,4.808
810,515.82,4.807
811,515.99,4.806
812,516.16,4.806
813,516.32,4.805
814,516.50,4.804
815,516.66,4.803
816,516.83,4.802
817,517.00,4.801
818,517.16,4.800
819,517.33,4.799
820,517.49,4.798
821,517.66,4.797
822,517.83,4.796
823,518.00,4.795
824,518.17,4.794
825,518.33,4.793
826,518.51,4.792
827,518.67,4.791
828,518.83,4.790
829,519.00,4.789
830,519.17,4.788
831,519.34,4.787
832,519.50,4.786
833,519.67,4.785
834,519.84,4.784
835,520.01,4.783
836,520.18,4.782
837,520.34,4.781
838,520.51,4.780
839,520.68,4.779
840,520.85,4.778
841,521.01,4.776
842,521.17,4.775
843,521.34,4.774
844,521.51,4.773
845,521.67,4.772
846,521.85,4.771
847,522.02,4.770
848,522.18,4.769
849,522.35,4.767
850,522.51,4.766
851,522.68,4.765
852,522.84,4.764
853,523.02,4.763
854,523.19,4.762
855,523.36,4.760
856,523.52,4.759
857,523.69,4.758
858,523.85,4.757
859,524.02,4.756
860,524.19,4.755
861,524.36,4.753
862,524.52,4.752
863,524.69,4.751
864,524.86,4.750
865,525.02,4.749
866,525.19,4.747
867,525.36,4.746
868,525.53,4.745
869,525.70,4.744
870,525.87,4.742
871,526.03,4.741
872,526.20,4.740
873,526.36,4.739
874,526.53,4.737
875,526.69,4.736
876,526.87,4.734
877,527.04,4.733
878,527.20,4.732
879,527.36,4.731
880,527.53,4.729
881,527.70,4.728
882,527.87,4.727
883,528.04,4.725
884,528.21,4.724
885,528.37,4.723
886,528.53,4.722
887,528.70,4.720
888,528.88,4.719
889,529.04,4.717
890,529.21,4.716
891,529.37,4.715
892,529.54,4.713
893,529.71,4.712
894,529.87,4.710
895,530.05,4.709
896,530.21,4.707
897,530.39,4.706
898,530.55,4.704
899,530.71,4.703
900,530.88,4.702
901,531.05,4.700
902,531.21,4.699
903,531.39,4.697
904,531.56,4.695
905,531.72,4.694
906,531.89,4.692
907,532.05,4.690
908,532.22,4.689
909,532.39,4.687
910,532.56,4.686
911,532.72,4.684
912,532.89,4.683
913,533.06,4.681
914,533.22,4.679
915,533.39,4.678
916,533.56,4.676
917,533.72,4.675
918,533.89,4.673
919,534.06,4.672
920,534.23,4.670
921,534.40,4.669
922,534.56,4.667
923,534.73,4.666
924,534.89,4.664
925,535.06,4.662
926,535.24,4.661
927,535.40,4.659
928,535.57,4.657
929,535.73,4.656
930,535.90,4.654
931,536.07,4.652
932,536.24,4.651
933,536.40,4.649
934,536.57,4.647
935,536.74,4.646
936,536.90,4.644
937,537.07,4.642
938,537.24,4.641
939,537.41,4.639
940,537.57,4.637
941,537.74,4.636
942,537.91,4.634
943,538.08,4.632
944,538.24,4.630
945,538.41,4.629
946,538.58,4.627
947,538.74,4.625
948,538.91,4.624
949,539.08,4.622
950,539.25,4.620
951,539.42,4.618
952,539.59,4.616
953,539.75,4.615
954,539.91,4.613
955,540.09,4.611
956,540.26,4.609
957,540.42,4.607
958,540.58,4.606
959,540.75,4.604
960,540.92,4.602
961,541.09,4.600
962,541.26,4.598
963,541.42,4.596
964,541.59,4.595
965,541.76,4.593
966,541.93,4.591
967,542.09,4.589
968,542.26,4.587
969,542.43,4.585
970,542.59,4.583
971,542.76,4.581
972,542.92,4.579
973,543.09,4.578
974,543.27,4.576
975,543.43,4.574
976,543.60,4.572
977,543.76,4.570
978,543.93,4.568
979,544.10,4.567
980,544.27,4.565
981,544.43,4.563
982,544.60,4.561
983,544.77,4.559
984,544.94,4.557
985,545.11,4.555
986,545.27,4.553
987,545.44,4.551
988,545.60,4.549
989,545.77,4.547
990,545.95,4.545
991,546.11,4.543
992,546.27,4.541
993,546.44,4.539
994,546.60,4.537
995,546.77,4.535
996,546.95,4.533
997,547.12,4.531
998,547.28,4.529
999,547.44,4.526
1000,547.61,4.524
1001,547.77,4.522
1002,547.95,4.520
1003,548.11,4.518
1004,548.28,4.516
1005,548.45,4.513
1006,548.62,4.511
1007,548.79,4.509
1008,548.95,4.507
1009,549.12,4.505
1010,549.29,4.502
1011,549.45,4.500
1012,549.62,4.498
1013,549.79,4.496
1014,549.96,4.494
1015,550.12,4.492
1016,550.29,4.489
1017,550.46,4.487
1018,550.63,4.485
1019,550.79,4.483
1020,550.96,4.481
1021,551.12,4.478
1022,551.29,4.476
1023,551.46,4.474
1024,551.63,4.472
1025,551.80,4.469
1026,551.96,4.467
1027,552.13,4.465
1028,552.31,4.463
1029,552.47,4.460
1030,552.63,4.458
1031,552.79,4.456
1032,552.96,4.454
1033,553.13,4.451
1034,553.31,4.449
1035,553.47,4.447
1036,553.64,4.445
1037,553.80,4.442
1038,553.97,4.440
1039,554.14,4.438
1040,554.31,4.435
1041,554.48,4.433
1042,554.64,4.431
1043,554.80,4.428
1044,554.97,4.426
1045,555.15,4.424
1046,555.31,4.421
1047,555.48,4.419
1048,555.64,4.416
1049,555.81,4.414
1050,555.97,4.411
1051,556.15,4.409
1052,556.32,4.407
1053,556.48,4.404
1054,556.65,4.402
1055,556.81,4.399
1056,556.98,4.397
1057,557.15,4.394
1058,557.32,4.392
1059,557.49,4.389
1060,557.65,4.387
1061,557.82,4.385
1062,557.99,4.382
1063,558.15,4.380
1064,558.32,4.377
1065,558.49,4.375
1066,558.66,4.372
1067,558.82,4.370
1068,558.99,4.367
1069,559.15,4.365
1070,559.32,4.362
1071,559.49,4.360
1072,559.66,4.357
1073,559.83,4.355
1074,559.99,4.352
1075,560.16,4.349
1076,560.33,4.347
1077,560.49,4.344
1078,560.66,4.342
1079,560.83,4.339
1080,561.00,4.336
1081,561.16,4.334
1082,561.33,4.331
1083,561.50,4.329
1084,561.67,4.326
1085,561.83,4.323
1086,562.00,4.321
1087,562.17,4.318
1088,562.34,4.315
1089,562.50,4.313
1090,562.67,4.310
1091,562.84,4.307
1092,563.00,4.305
1093,563.17,4.302
1094,563.34,4.299
1095,563.51,4.297
1096,563.68,4.294
1097,563.84,4.291
1098,564.01,4.288
1099,564.17,4.286
1100,564.34,4.283
1101,564.51,4.280
1102,564.68,4.277
1103,564.84,4.275
1104,565.01,4.272
1105,565.18,4.269
1106,565.35,4.266
1107,565.51,4.264
1108,565.68,4.261
1109,565.85,4.258
1110,566.02,4.255
1111,566.18,4.252
1112,566.35,4.249
1113,566.52,4.247
1114,566.69,4.244
1115,566.86,4.241
1116,567.02,4.238
1117,567.19,4.235
1118,567.36,4.232
1119,567.52,4.229
1120,567.69,4.226
1121,567.86,4.223
1122,568.03,4.221
1123,568.19,4.218
1124,568.36,4.215
1125,568.52,4.212
1126,568.69,4.209
1127,568.87,4.206
1128,569.03,4.203
1129,569.20,4.200
1130,569.36,4.197
1131,569.52,4.194
1132,569.70,4.191
1133,569.86,4.188
1134,570.03,4.185
1135,570.20,4.182
1136,570.36,4.179
1137,570.53,4.176
1138,570.70,4.173
1139,570.87,4.170
1140,571.04,4.167
1141,571.21,4.163
1142,571.37,4.160
1143,571.53,4.157
1144,571.70,4.154
1145,571.87,4.151
1146,572.05,4.148
1147,572.21,4.145
1148,572.38,4.142
1149,572.54,4.138
1150,572.71,4.135
1151,572.88,4.132
1152,573.05,4.129
1153,573.21,4.126
1154,573.38,4.123
1155,573.54,4.119
1156,573.71,4.116
1157,573.87,4.113
1158,574.05,4.110
1159,574.22,4.106
1160,574.38,4.103
1161,574.55,4.100
1162,574.72,4.097
1163,574.88,4.093
1164,575.05,4.090
1165,575.22,4.087
1166,575.38,4.083
1167,575.55,4.080
1168,575.72,4.077
1169,575.89,4.073
1170,576.06,4.070
1171,576.23,4.067
1172,576.39,4.063
1173,576.55,4.060
1174,576.72,4.056
1175,576.90,4.053
1176,577.06,4.049
1177,577.23,4.046
1178,577.39,4.042
1179,577.56,4.039
1180,577.73,4.035
1181,577.90,4.032
1182,578.06,4.028
1183,578.23,4.025
1184,578.40,4.021
1185,578.56,4.018
1186,578.73,4.014
1187,578.90,4.011
1188,579.07,4.007
1189,579.23,4.003
1190,579.40,4.000
1191,579.57,3.996
1192,579.74,3.992
1193,579.90,3.989
1194,580.07,3.985
1195,580.24,3.981
1196,580.40,3.978
1197,580.57,3.974
1198,580.74,3.970
1199,580.91,3.966
1200,581.07,3.963
1201,581.24,3.959
1202,581.41,3.955
1203,581.58,3.951
1204,581.74,3.947
1205,581.91,3.943
1206,582.08,3.940
1207,582.25,3.936
1208,582.41,3.932
1209,582.58,3.928
1210,582.75,3.924
1211,582.92,3.920
1212,583.08,3.916
1213,583.25,3.912
1214,583.41,3.908
1215,583.58,3.904
1216,583.75,3.900
1217,583.92,3.896
1218,584.09,3.892
1219,584.25,3.888
1220,584.42,3.884
1221,584.58,3.880
1222,584.75,3.875
1223,584.92,3.871
1224,585.09,3.867
1225,585.26,3.863
1226,585.43,3.859
1227,585.59,3.854
1228,585.76,3.850
1229,585.92,3.846
1230,586.09,3.842
1231,586.26,3.837
1232,586.43,3.833
1233,586.60,3.829
1234,586.76,3.824
1235,586.93,3.820
1236,587.10,3.816
1237,587.27,3.811
1238,587.43,3.807
1239,587.60,3.802
1240,587.76,3.798
1241,587.93,3.793
1242,588.10,3.789
1243,588.27,3.784
1244,588.44,3.780
1245,588.60,3.775
1246,588.77,3.771
1247,588.94,3.766
1248,589.11,3.762
1249,589.27,3.757
1250,589.44,3.752
1251,589.61,3.748
1252,589.77,3.743
1253,589.94,3.738
1254,590.11,3.733
1255,590.28,3.729
1256,590.45,3.724
1257,590.61,3.719
1258,590.78,3.714
1259,590.95,3.709
1260,591.11,3.704
1261,591.28,3.699
1262,591.45,3.694
1263,591.62,3.689
1264,591.78,3.685
1265,591.95,3.680
1266,592.11,3.674
1267,592.28,3.669
1268,592.45,3.664
1269,592.62,3.659
1270,592.79,3.654
1271,592.95,3.649
1272,593.12,3.644
1273,593.29,3.639
1274,593.46,3.633
1275,593.63,3.628
1276,593.79,3.623
1277,593.96,3.618
1278,594.12,3.612
1279,594.29,3.607
1280,594.46,3.602
1281,594.63,3.596
1282,594.79,3.591
1283,594.96,3.585
1284,595.13,3.580
1285,595.30,3.574
1286,595.46,3.569
1287,595.63,3.563
1288,595.80,3.558
1289,595.96,3.552
1290,596.13,3.547
1291,596.30,3.541
1292,596.46,3.535
1293,596.63,3.530
1294,596.80,3.524
1295,596.97,3.518
1296,597.13,3.512
1297,597.30,3.506
1298,597.47,3.501
1299,597.64,3.495
1300,597.81,3.489
1301,597.98,3.483
1302,598.14,3.477
1303,598.30,3.471
1304,598.47,3.465
1305,598.64,3.459
1306,598.81,3.453
1307,598.97,3.447
1308,599.14,3.440
1309,599.31,3.434
1310,599.48,3.428
1311,599.65,3.422
1312,599.81,3.416
1313,599.98,3.409
1314,600.15,3.403
1315,600.31,3.396
1316,600.48,3.390
1317,600.65,3.384
1318,600.82,3.377
1319,600.98,3.371
1320,601.15,3.364
1321,601.31,3.357
1322,601.48,3.351
1323,601.65,3.344
1324,601.82,3.337
1325,601.99,3.331
1326,602.15,3.324
1327,602.32,3.317
1328,602.49,3.310
1329,602.66,3.303
1330,602.83,3.296
1331,602.99,3.289
1332,603.16,3.282
1333,603.33,3.275
1334,603.50,3.268
1335,603.67,3.261
1336,603.83,3.254
1337,603.99,3.247
1338,604.16,3.239
1339,604.33,3.232
1340,604.49,3.225
1341,604.66,3.217
1342,604.84,3.210
1343,605.00,3.202
1344,605.16,3.195
1345,605.33,3.187
1346,605.50,3.179
1347,605.67,3.172
1348,605.84,3.164
1349,606.00,3.156
1350,606.17,3.148
1351,606.34,3.140
1352,606.50,3.132
1353,606.67,3.124
1354,606.84,3.116
1355,607.01,3.108
1356,607.18,3.099
1357,607.34,3.091
1358,607.51,3.083
1359,607.68,3.074
1360,607.84,3.066
1361,608.01,3.057
1362,608.18,3.048
1363,608.35,3.040
1364,608.51,3.031
1365,608.68,3.022
1366,608.85,3.013
1367,609.01,3.004
1368,609.18,2.995
1369,609.36,2.986
1370,609.52,2.976
1371,609.68,2.967
1372,609.84,2.958
1373,610.01,2.948
1374,610.19,2.939
1375,610.36,2.929
1376,610.53,2.919
1377,610.69,2.909
1378,610.85,2.899
1379,611.02,2.889
1380,611.19,2.879
1381,611.36,2.869
1382,611.52,2.859
1383,611.70,2.848
1384,611.86,2.838
1385,612.03,2.827
1386,612.19,2.817
1387,612.36,2.806
1388,612.53,2.795
1389,612.69,2.784
1390,612.86,2.773
1391,613.03,2.762
1392,613.20,2.750
1393,613.37,2.739
1394,613.53,2.727
1395,613.70,2.716
1396,613.86,2.704
1397,614.03,2.692
1398,614.20,2.680
1399,614.37,2.668
1400,614.54,2.656
1401,614.70,2.644
1402,614.87,2.632
1403,615.04,2.619
1404,615.20,2.607
1405,615.37,2.594
1406,615.54,2.581
1407,615.70,2.568
1408,615.87,2.556
1409,616.05,2.543
1410,616.21,2.530
1411,616.37,2.516
1412,616.54,2.503
1413,616.70,2.490
1414,616.87,2.477
1415,617.05,2.463
1416,617.22,2.450
1417,617.38,2.437
1418,617.54,2.423
1419,617.71,2.410
1420,617.88,2.396
1421,618.05,2.383
1422,618.22,2.369
1423,618.38,2.356
1424,618.55,2.342
1425,618.71,2.329
1426,618.88,2.315
1427,619.05,2.302
1428,619.22,2.288
1429,619.39,2.275
1430,619.55,2.262
1431,619.72,2.248
1432,619.89,2.235
1433,620.05,2.222
1434,620.23,2.209
1435,620.39,2.196
1436,620.56,2.183
1437,620.73,2.170
1438,620.89,2.157
1439,621.06,2.144
1440,621.22,2.132
1441,621.39,2.120
1442,621.56,2.107
1443,621.73,2.095
1444,621.90,2.084
1445,622.06,2.072
1446,622.23,2.060
1447,622.39,2.049
1448,622.56,2.038
1449,622.73,2.027
1450,622.90,2.016
1451,623.07,2.005
1452,623.23,1.995
1453,623.40,1.985
1454,623.57,1.975
1455,623.74,1.965
1456,623.91,1.955
1457,624.07,1.946
1458,624.23,1.937
1459,624.40,1.928
1460,624.57,1.919
1461,624.74,1.910
1462,624.91,1.902
1463,625.08,1.893
1464,625.24,1.885
1465,625.41,1.877
1466,625.57,1.870
1467,625.74,1.862
1468,625.91,1.855
1469,626.08,1.848
1470,626.24,1.841
1471,626.41,1.834
1472,626.59,1.827
1473,626.75,1.821
1474,626.91,1.814
1475,627.08,1.808
1476,627.25,1.802
1477,627.42,1.796
1478,627.59,1.790
1479,627.75,1.785
1480,627.92,1.779
1481,628.08,1.774
1482,628.25,1.768
1483,628.42,1.763
1484,628.59,1.758
1485,628.75,1.753
1486,628.92,1.748
1487,629.09,1.743
1488,629.26,1.738
1489,629.42,1.734
1490,629.59,1.729
1491,629.76,1.725
1492,629.93,1.720
1493,630.10,1.716
1494,630.26,1.712
1495,630.42,1.708
1496,630.59,1.704
1497,630.76,1.700
1498,630.93,1.696
1499,631.10,1.692
1500,631.26,1.688
1501,631.43,1.685
1502,631.59,1.681
1503,631.77,1.677
1504,631.94,1.674
1505,632.10,1.670
1506,632.27,1.667
1507,632.43,1.664
1508,632.60,1.660
1509,632.76,1.657
1510,632.94,1.654
1511,633.11,1.651
1512,633.27,1.648
1513,633.43,1.644
1514,633.61,1.641
1515,633.77,1.638
1516,633.94,1.635
1517,634.11,1.632
1518,634.28,1.630
1519,634.44,1.627
1520,634.61,1.624
1521,634.78,1.621
1522,634.95,1.619
1523,635.11,1.616
1524,635.29,1.613
1525,635.44,1.611
1526,635.61,1.608
1527,635.78,1.605
1528,635.95,1.603
1529,636.12,1.600
1530,636.29,1.598
1531,636.45,1.595
1532,636.61,1.593
1533,636.78,1.590
1534,636.95,1.588
1535,637.12,1.585
1536,637.29,1.583
1537,637.46,1.581
1538,637.62,1.578
1539,637.79,1.576
1540,637.95,1.573
1541,638.12,1.571
1542,638.29,1.569
1543,638.46,1.566
1544,638.62,1.564
1545,638.79,1.562
1546,638.96,1.560
1547,639.12,1.557
1548,639.30,1.555
1549,639.46,1.553
1550,639.63,1.551
1551,639.80,1.549
1552,639.97,1.546
1553,640.13,1.544
1554,640.30,1.542
1555,640.46,1.540
1556,640.64,1.538
1557,640.81,1.536
1558,640.97,1.534
1559,641.14,1.532
1560,641.30,1.529
1561,641.47,1.527
1562,641.63,1.525
1563,641.80,1.523
1564,641.97,1.521
1565,642.14,1.519
1566,642.30,1.517
1567,642.47,1.515
1568,642.64,1.513
1569,642.81,1.511
1570,642.97,1.509
1571,643.14,1.507
1572,643.31,1.505
1573,643.48,1.503
1574,643.65,1.502
1575,643.81,1.500
1576,643.97,1.498
1577,644.15,1.496
1578,644.32,1.494
1579,644.48,1.492
1580,644.65,1.490
1581,644.81,1.488
1582,644.98,1.486
1583,645.16,1.485
1584,645.32,1.483
1585,645.49,1.481
1586,645.65,1.479
1587,645.82,1.477
1588,645.99,1.475
1589,646.15,1.474
1590,646.32,1.472
1591,646.49,1.470
1592,646.66,1.468
1593,646.82,1.466
1594,646.99,1.465
1595,647.16,1.463
1596,647.32,1.461
1597,647.49,1.459
1598,647.66,1.458
1599,647.82,1.456
1600,647.99,1.454
1601,648.16,1.452
1602,648.33,1.451
1603,648.50,1.449
1604,648.66,1.447
1605,648.83,1.445
1606,649.00,1.444
1607,649.17,1.442
1608,649.33,1.440
1609,649.50,1.439
1610,649.67,1.437
1611,649.84,1.435
1612,650.00,1.434
1613,650.17,1.432
1614,650.33,1.430
1615,650.50,1.429
1616,650.67,1.427
1617,650.84,1.425
1618,651.01,1.424
1619,651.17,1.422
1620,651.34,1.420
1621,651.51,1.419
1622,651.68,1.417
1623,651.85,1.415
1624,652.01,1.414
1625,652.18,1.412
1626,652.34,1.411
1627,652.51,1.409
1628,652.68,1.407
1629,652.84,1.406
1630,653.02,1.404
1631,653.18,1.403
1632,653.35,1.401
1633,653.51,1.399
1634,653.68,1.398
1635,653.85,1.396
1636,654.02,1.395
1637,654.18,1.393
1638,654.35,1.392
1639,654.53,1.390
1640,654.68,1.388
1641,654.85,1.387
1642,655.02,1.385
1643,655.19,1.384
1644,655.36,1.383
1645,655.53,1.381
1646,655.69,1.380
1647,655.85,1.378
1648,656.03,1.376
1649,656.20,1.375
1650,656.36,1.373
1651,656.53,1.372
1652,656.69,1.370
1653,656.86,1.369
1654,657.03,1.367
1655,657.20,1.366
1656,657.36,1.364
1657,657.53,1.362
1658,657.70,1.361
1659,657.87,1.359
1660,658.04,1.358
1661,658.20,1.356
1662,658.37,1.355
1663,658.53,1.354
1664,658.71,1.352
1665,658.87,1.351
1666,659.04,1.349
1667,659.21,1.348
1668,659.37,1.346
1669,659.54,1.345
1670,659.71,1.343
1671,659.87,1.342
1672,660.04,1.340
1673,660.21,1.339
1674,660.38,1.337
1675,660.54,1.336
1676,660.71,1.334
1677,660.87,1.333
1678,661.04,1.331
1679,661.21,1.330
1680,661.38,1.328
1681,661.55,1.327
1682,661.72,1.325
1683,661.88,1.324
1684,662.04,1.323
1685,662.21,1.321
1686,662.39,1.320
1687,662.56,1.318
1688,662.72,1.317
1689,662.89,1.315
1690,663.05,1.314
1691,663.22,1.312
1692,663.38,1.311
1693,663.55,1.310
1694,663.72,1.308
1695,663.89,1.307
1696,664.06,1.305
1697,664.22,1.304
1698,664.39,1.302
1699,664.56,1.301
1700,664.73,1.300
1701,664.89,1.298
1702,665.06,1.297
1703,665.23,1.295
1704,665.40,1.294
1705,665.56,1.292
1706,665.73,1.291
1707,665.90,1.290
1708,666.07,1.288
1709,666.23,1.287
1710,666.40,1.286
1711,666.57,1.284
1712,666.73,1.283
1713,666.90,1.282
1714,667.07,1.280
1715,667.24,1.279
1716,667.41,1.277
1717,667.58,1.276
1718,667.74,1.274
1719,667.90,1.273
1720,668.08,1.271
1721,668.24,1.270
1722,668.40,1.268
1723,668.57,1.267
1724,668.75,1.265
1725,668.91,1.264
1726,669.07,1.263
1727,669.24,1.261
1728,669.41,1.260
1729,669.59,1.258
1730,669.74,1.257
1731,669.91,1.256
1732,670.08,1.254
1733,670.25,1.253
1734,670.41,1.252
1735,670.57,1.251
1736,670.75,1.250
1737,670.92,1.248
1738,671.09,1.247
1739,671.25,1.246
1740,671.42,1.244
1741,671.59,1.243
1742,671.75,1.242
1743,671.92,1.240
1744,672.08,1.239
1745,672.25,1.237
1746,672.42,1.236
1747,672.59,1.235
1748,672.75,1.233
1749,672.92,1.232
1750,673.09,1.230
1751,673.27,1.229
1752,673.42,1.228
1753,673.59,1.226
1754,673.76,1.225
1755,673.93,1.224
1756,674.09,1.222
1757,674.26,1.221
1758,674.43,1.219
1759,674.60,1.218
1760,674.77,1.217
1761,674.93,1.215
1762,675.11,1.214
1763,675.27,1.213
1764,675.43,1.211
1765,675.60,1.210
1766,675.77,1.208
1767,675.94,1.207
1768,676.10,1.206
1769,676.27,1.204
1770,676.44,1.203
1771,676.60,1.202
1772,676.77,1.200
1773,676.94,1.199
1774,677.11,1.197
1775,677.27,1.196
1776,677.44,1.194
1777,677.60,1.193
1778,677.78,1.192
1779,677.95,1.190
1780,678.11,1.189
1781,678.28,1.187
1782,678.44,1.186
1783,678.61,1.185
1784,678.78,1.183
1785,678.95,1.182
1786,679.11,1.180
1787,679.28,1.179
1788,679.46,1.178
1789,679.62,1.176
1790,679.78,1.175
1791,679.95,1.173
1792,680.12,1.172
1793,680.29,1.170
1794,680.46,1.169
1795,680.63,1.167
1796,680.79,1.166
1797,680.96,1.164
1798,681.12,1.163
1799,681.29,1.162
1800,681.45,1.160
1801,681.62,1.159
1802,681.79,1.158
1803,681.96,1.156
1804,682.12,1.155
1805,682.29,1.154
1806,682.46,1.152
1807,682.63,1.151
1808,682.79,1.150
1809,682.96,1.148
1810,683.13,1.147
1811,683.30,1.145
1812,683.46,1.144
1813,683.63,1.143
1814,683.80,1.141
1815,683.96,1.140
1816,684.13,1.138
1817,684.31,1.137
1818,684.48,1.136
1819,684.63,1.134
1820,684.80,1.133
1821,684.97,1.131
1822,685.14,1.130
1823,685.31,1.129
1824,685.48,1.127
1825,685.64,1.126
1826,685.81,1.124
1827,685.97,1.123
1828,686.14,1.122
1829,686.30,1.120
1830,686.48,1.119
1831,686.64,1.118
1832,686.81,1.116
1833,686.98,1.115
1834,687.15,1.113
1835,687.31,1.112
1836,687.48,1.111
1837,687.65,1.109
1838,687.82,1.108
1839,687.98,1.106
1840,688.15,1.105
1841,688.32,1.104
1842,688.50,1.102
1843,688.66,1.101
1844,688.82,1.099
1845,688.98,1.098
1846,689.16,1.096
1847,689.33,1.095
1848,689.49,1.094
1849,689.65,1.092
1850,689.82,1.091
1851,689.99,1.089
1852,690.16,1.088
1853,690.33,1.086
1854,690.49,1.085
1855,690.66,1.084
1856,690.82,1.082
1857,690.99,1.081
1858,691.16,1.079
1859,691.33,1.078
1860,691.50,1.077
1861,691.66,1.075
1862,691.83,1.074
1863,692.00,1.072
1864,692.17,1.071
1865,692.33,1.070
1866,692.50,1.068
1867,692.67,1.067
1868,692.84,1.065
1869,693.00,1.064
1870,693.17,1.062
1871,693.34,1.061
1872,693.51,1.059
1873,693.67,1.058
1874,693.84,1.057
1875,694.01,1.055
1876,694.18,1.054
1877,694.35,1.052
1878,694.51,1.051
1879,694.67,1.049
1880,694.84,1.048
1881,695.01,1.047
1882,695.18,1.045
1883,695.34,1.044
1884,695.51,1.042
1885,695.68,1.041
1886,695.85,1.039
1887,696.02,1.038
1888,696.19,1.036
1889,696.35,1.035
1890,696.52,1.033
1891,696.68,1.032
1892,696.85,1.030
1893,697.02,1.029
1894,697.19,1.027
1895,697.35,1.026
1896,697.52,1.024
1897,697.69,1.022
1898,697.85,1.021
1899,698.02,1.019
1900,698.19,1.018
1901,698.36,1.016
1902,698.52,1.015
1903,698.70,1.014
1904,698.85,1.012
1905,699.02,1.011
1906,699.19,1.009
1907,699.37,1.008
1908,699.54,1.006
1909,699.69,1.005
1910,699.86,1.004
1911,700.02,1.002
1912,700.20,1.000
1913,700.37,0.999
1914,700.53,0.997
1915,700.69,0.996
1916,700.86,0.994
1917,701.03,0.993
1918,701.20,0.991
1919,701.37,0.990
1920,701.53,0.988
1921,701.69,0.987
1922,701.86,0.985
1923,702.03,0.984
1924,702.19,0.982
1925,702.36,0.981
1926,702.53,0.979
1927,702.70,0.978
1928,702.86,0.976
1929,703.03,0.975
1930,703.20,0.973
1931,703.36,0.972
1932,703.53,0.970
1933,703.70,0.969
1934,703.87,0.967
1935,704.03,0.965
1936,704.20,0.963
1937,704.37,0.962
1938,704.53,0.960
1939,704.70,0.959
1940,704.87,0.957
1941,705.03,0.955
1942,705.20,0.954
1943,705.36,0.952
1944,705.53,0.951
1945,705.70,0.949
1946,705.86,0.948
1947,706.03,0.946
1948,706.19,0.945
1949,706.36,0.943
1950,706.53,0.941
1951,706.70,0.940
1952,706.86,0.938
1953,707.03,0.937
1954,707.20,0.935
1955,707.36,0.934
1956,707.52,0.932
1957,707.70,0.931
1958,707.86,0.929
1959,708.03,0.927
1960,708.20,0.926
1961,708.36,0.924
1962,708.53,0.922
1963,708.70,0.921
1964,708.86,0.919
1965,709.03,0.918
1966,709.20,0.916
1967,709.36,0.915
1968,709.53,0.913
1969,709.70,0.912
1970,709.86,0.910
1971,710.03,0.908
1972,710.19,0.907
1973,710.36,0.905
1974,710.53,0.904
1975,710.69,0.902
1976,710.86,0.900
1977,711.03,0.899
1978,711.20,0.897
1979,711.36,0.895
1980,711.53,0.894
1981,711.70,0.892
1982,711.87,0.890
1983,712.03,0.889
1984,712.19,0.887
1985,712.36,0.885
1986,712.53,0.884
1987,712.70,0.882
1988,712.87,0.880
1989,713.03,0.878
1990,713.20,0.877
1991,713.36,0.875
1992,713.53,0.873
1993,713.70,0.872
1994,713.86,0.870
1995,714.03,0.868
1996,714.20,0.866
1997,714.36,0.865
1998,714.53,0.863
1999,714.69,0.861
2000,714.86,0.859
2001,715.03,0.858
2002,715.19,0.856
2003,715.36,0.854
2004,715.53,0.852
2005,715.70,0.850
2006,715.86,0.849
2007,716.03,0.847
2008,716.19,0.845
2009,716.37,0.843
2010,716.53,0.841
2011,716.70,0.840
2012,716.86,0.838
2013,717.03,0.836
2014,717.20,0.834
2015,717.36,0.832
2016,717.53,0.831
2017,717.70,0.829
2018,717.87,0.827
2019,718.03,0.825
2020,718.19,0.823
2021,718.36,0.821
2022,718.53,0.819
2023,718.70,0.818
2024,718.86,0.816
2025,719.03,0.814
2026,719.20,0.812
2027,719.37,0.810
2028,719.53,0.808
2029,719.70,0.806
2030,719.87,0.804
2031,720.03,0.802
2032,720.20,0.801
2033,720.36,0.799
2034,720.53,0.797
2035,720.70,0.795
2036,720.87,0.793
2037,721.03,0.791
2038,721.19,0.789
2039,721.36,0.787
2040,721.53,0.785
2041,721.70,0.783
2042,721.86,0.781
2043,722.03,0.779
2044,722.20,0.777
2045,722.37,0.775
2046,722.53,0.773
2047,722.69,0.771
2048,722.85,0.769
2049,723.03,0.767
2050,723.20,0.765
2051,723.37,0.763
2052,723.53,0.761
2053,723.69,0.759
2054,723.86,0.757
2055,724.03,0.755
2056,724.19,0.754
2057,724.37,0.751
2058,724.53,0.750
2059,724.69,0.747
2060,724.86,0.745
2061,725.03,0.743
2062,725.19,0.741
2063,725.37,0.739
2064,725.53,0.737
2065,725.69,0.735
2066,725.86,0.733
2067,726.03,0.731
2068,726.19,0.729
2069,726.36,0.727
2070,726.53,0.725
2071,726.70,0.723
2072,726.86,0.721
2073,727.03,0.719
2074,727.20,0.717
2075,727.36,0.715
2076,727.53,0.712
2077,727.70,0.710
2078,727.86,0.708
2079,728.03,0.706
2080,728.19,0.704
2081,728.36,0.702
2082,728.53,0.700
2083,728.70,0.698
2084,728.87,0.696
2085,729.04,0.693
2086,729.19,0.691
2087,729.36,0.689
2088,729.53,0.687
2089,729.70,0.685
2090,729.87,0.683
2091,730.03,0.681
2092,730.19,0.679
2093,730.36,0.676
2094,730.53,0.674
2095,730.69,0.672
2096,730.86,0.670
2097,731.03,0.668
2098,731.19,0.666
2099,731.36,0.664
2100,731.53,0.661
2101,731.70,0.659
2102,731.86,0.657
2103,732.02,0.655
2104,732.20,0.653
2105,732.37,0.651
2106,732.53,0.648
2107,732.70,0.646
2108,732.86,0.644
2109,733.03,0.642
2110,733.20,0.640
2111,733.37,0.638
2112,733.53,0.635
2113,733.70,0.633
2114,733.86,0.631
2115,734.03,0.629
2116,734.19,0.627
2117,734.36,0.625
2118,734.53,0.622
2119,734.69,0.620
2120,734.86,0.618
2121,735.03,0.616
2122,735.20,0.614
2123,735.36,0.611
2124,735.53,0.609
2125,735.70,0.607
2126,735.86,0.605
2127,736.03,0.602
2128,736.19,0.600
2129,736.37,0.598
2130,736.53,0.596
2131,736.69,0.594
2132,736.87,0.591
2133,737.03,0.589
2134,737.19,0.587
2135,737.36,0.585
2136,737.53,0.582
2137,737.70,0.580
2138,737.86,0.578
2139,738.03,0.575
2140,738.20,0.573
2141,738.36,0.571
2142,738.53,0.569
2143,738.69,0.566
2144,738.86,0.564
2145,739.03,0.562
2146,739.20,0.560
2147,739.36,0.557
2148,739.53,0.555
2149,739.70,0.553
2150,739.86,0.551
2151,740.03,0.549
2152,740.20,0.546
2153,740.36,0.544
2154,740.53,0.542
2155,740.70,0.540
2156,740.87,0.537
2157,741.03,0.535
2158,741.20,0.533
2159,741.37,0.531
2160,741.53,0.528
2161,741.70,0.526
2162,741.87,0.524
2163,742.03,0.522
2164,742.20,0.519
2165,742.36,0.517
2166,742.53,0.515
2167,742.69,0.513
2168,742.86,0.510
2169,743.03,0.508
2170,743.20,0.506
2171,743.36,0.503
2172,743.53,0.501
2173,743.69,0.499
2174,743.86,0.497
2175,744.03,0.494
2176,744.20,0.492
2177,744.36,0.490
2178,744.53,0.487
2179,744.70,0.485
2180,744.87,0.483
2181,745.03,0.480
2182,745.20,0.478
2183,745.36,0.476
2184,745.53,0.473
2185,745.70,0.471
2186,745.86,0.469
2187,746.03,0.466
2188,746.20,0.464
2189,746.37,0.462
2190,746.53,0.459
2191,746.69,0.457
2192,746.86,0.454
2193,747.03,0.452
2194,747.19,0.450
2195,747.36,0.447
2196,747.53,0.445
2197,747.69,0.442
2198,747.86,0.440
2199,748.03,0.438
2200,748.20,0.435
2201,748.36,0.433
2202,748.53,0.430
2203,748.70,0.428
2204,748.87,0.425
2205,749.03,0.423
2206,749.19,0.421
2207,749.37,0.418
2208,749.53,0.416
2209,749.70,0.413
2210,749.86,0.411
2211,750.03,0.408
2212,750.21,0.406
2213,750.36,0.403
2214,750.53,0.401
2215,750.69,0.399
2216,750.87,0.396
2217,751.03,0.394
2218,751.20,0.391
2219,751.37,0.389
2220,751.53,0.386
2221,751.70,0.383
2222,751.86,0.381
2223,752.03,0.378
2224,752.19,0.376
2225,752.36,0.373
2226,752.53,0.371
2227,752.70,0.368
2228,752.86,0.366
2229,753.03,0.363
2230,753.20,0.360
2231,753.36,0.358
2232,753.53,0.355
2233,753.70,0.353
2234,753.86,0.350
2235,754.03,0.347
2236,754.20,0.345
2237,754.36,0.342
2238,754.53,0.339
2239,754.70,0.337
2240,754.87,0.334
2241,755.03,0.331
2242,755.20,0.329
2243,755.37,0.326
2244,755.53,0.323
2245,755.70,0.320
2246,755.87,0.318
2247,756.03,0.315
2248,756.20,0.312
2249,756.37,0.309
2250,756.53,0.307
2251,756.70,0.304
2252,756.86,0.301
2253,757.03,0.298
2254,757.20,0.296
2255,757.37,0.293
2256,757.53,0.290
2257,757.69,0.287
2258,757.87,0.284
2259,758.03,0.281
2260,758.19,0.279
2261,758.36,0.276
2262,758.54,0.273
2263,758.70,0.270
2264,758.86,0.267
2265,759.03,0.264
2266,759.20,0.261
2267,759.36,0.258
2268,759.53,0.255
2269,759.70,0.252
2270,759.87,0.249
2271,760.03,0.246
2272,760.19,0.243
2273,760.36,0.240
2274,760.53,0.237
2275,760.70,0.234
2276,760.86,0.231
2277,761.03,0.228
2278,761.20,0.225
2279,761.36,0.221
2280,761.53,0.218
2281,761.70,0.215
2282,761.87,0.212
2283,762.04,0.208
2284,762.20,0.204
2285,762.36,0.201
2286,762.53,0.198
2287,762.70,0.195
2288,762.87,0.192
2289,763.03,0.189
2290,763.20,0.185
2291,763.37,0.182
2292,763.53,0.178
2293,763.70,0.174
2294,764.33,0.147
2295,764.92,0.091
2296,764.28,0.049
2297,763.84,0.028
2298,764.61,0.024
2299,764.91,0.024
2300,764.65,0.024
2301,764.90,0.024
2302,765.26,0.024
2303,765.31,0.024
2304,765.38,0.025
2305,765.64,0.025
2306,765.86,0.025
2307,765.97,0.025
2308,766.11,0.025
2309,766.33,0.024
2310,766.51,0.024
2311,766.66,0.023
2312,766.82,0.023
2313,767.00,0.023
2314,767.18,0.023
2315,767.35,0.022
2316,767.50,0.022
2317,767.67,0.022
2318,767.84,0.022
2319,768.01,0.022
2320,768.18,0.022
2321,768.35,0.022
2322,768.52,0.022
2323,768.68,0.022
2324,768.85,0.021
2325,769.02,0.021
2326,769.19,0.021
2327,769.35,0.021
2328,769.52,0.021
2329,769.69,0.021
2330,769.86,0.021
2331,770.03,0.021
2332,770.19,0.021
2333,770.36,0.021
2334,770.53,0.021
2335,770.70,0.020
2336,770.86,0.020
2337,771.03,0.020
2338,771.19,0.020
2339,771.36,0.020
2340,771.53,0.020
2341,771.70,0.020
2342,771.86,0.020
2343,772.03,0.020
2344,772.20,0.020
2345,772.36,0.020
2346,772.52,0.020
2347,772.70,0.020
2348,772.86,0.020
2349,773.03,0.019
2350,773.20,0.019
2351,773.37,0.019
2352,773.53,0.019
2353,773.70,0.019
2354,773.86,0.019
2355,774.03,0.019
2356,774.20,0.019
2357,774.36,0.019
2358,774.54,0.019
2359,774.70,0.019
2360,774.86,0.019
2361,775.04,0.019
2362,775.20,0.019
2363,775.37,0.019
2364,775.54,0.019
2365,775.70,0.019
2366,775.86,0.019
2367,776.03,0.019
2368,776.20,0.019
2369,776.37,0.019
2370,776.53,0.018
2371,776.70,0.018
2372,776.86,0.018
2373,777.03,0.018
2374,777.19,0.018
2375,777.36,0.018
2376,777.53,0.018
2377,777.70,0.018
2378,777.86,0.018
2379,778.03,0.018
2380,778.20,0.018
2381,778.36,0.018
2382,778.53,0.018
2383,778.70,0.018
2384,778.87,0.018
2385,779.03,0.018
2386,779.20,0.018
2387,779.37,0.018
2388,779.53,0.018
2389,779.69,0.018
2390,779.87,0.018
2391,780.04,0.018
2392,780.20,0.018
2393,780.36,0.018
2394,780.53,0.018
2395,780.70,0.018
2396,780.87,0.018
2397,781.03,0.018
2398,781.20,0.018
2399,781.36,0.018
2400,781.53,0.018
2401,781.69,0.018
2402,781.86,0.018
2403,782.03,0.018
2404,782.20,0.018
2405,782.36,0.018
2406,782.52,0.018
2407,782.70,0.018
2408,782.87,0.018
2409,783.04,0.017
2410,783.20,0.017
2411,783.36,0.017
2412,783.53,0.017
2413,783.70,0.017
2414,783.87,0.017
2415,784.03,0.017
2416,784.20,0.017
2417,784.36,0.017
2418,784.53,0.017
2419,784.70,0.017
2420,784.87,0.017
2421,785.03,0.017
2422,785.20,0.017
2423,785.37,0.017
2424,785.53,0.017
2425,785.70,0.017
2426,785.86,0.017
2427,786.03,0.017
2428,786.20,0.017
2429,786.36,0.017
2430,786.53,0.017
2431,786.69,0.017
2432,786.86,0.017
2433,787.03,0.017
2434,787.20,0.017
2435,787.37,0.017
2436,787.53,0.017
2437,787.70,0.017
2438,787.87,0.017
2439,788.03,0.017
2440,788.20,0.017
2441,788.37,0.017
2442,788.53,0.017
2443,788.70,0.017
2444,788.87,0.017
2445,789.03,0.017
2446,789.19,0.017
2447,789.36,0.017
2448,789.53,0.017
2449,789.70,0.017
2450,789.87,0.017
2451,790.03,0.017
2452,790.20,0.017
2453,790.36,0.017
2454,790.53,0.017
2455,790.70,0.017
2456,790.87,0.017
2457,791.03,0.017
2458,791.20,0.017
2459,791.37,0.017
2460,791.53,0.017
2461,791.70,0.017
2462,791.87,0.017
2463,792.03,0.017
2464,792.20,0.017
2465,792.37,0.017
2466,792.53,0.017
2467,792.70,0.017
2468,792.87,0.017
2469,793.03,0.017
2470,793.20,0.017
2471,793.37,0.017
2472,793.54,0.017
2473,793.70,0.017
2474,793.87,0.017
2475,794.03,0.017
2476,794.20,0.017
2477,794.36,0.017
2478,794.53,0.017
2479,794.70,0.017
2480,794.86,0.017
2481,795.03,0.017
2482,795.20,0.017
2483,795.37,0.017
2484,795.54,0.017
2485,795.70,0.017
2486,795.86,0.017
2487,796.04,0.017
2488,796.20,0.017
2489,796.36,0.017
2490,796.53,0.017
2491,796.70,0.017
2492,796.87,0.017
2493,797.04,0.017
2494,797.20,0.017
2495,797.37,0.017
2496,797.54,0.017
2497,797.70,0.017
2498,797.87,0.017
2499,798.03,0.017
2500,798.19,0.017
2501,798.37,0.017
2502,798.54,0.017
2503,798.70,0.017
2504,798.87,0.017
2505,799.03,0.017
2506,799.20,0.017
2507,799.37,0.017
2508,799.53,0.017
2509,799.70,0.017
2510,799.86,0.017
2511,800.03,0.017
2512,800.20,0.017
2513,800.36,0.017
2514,800.54,0.017
2515,800.70,0.017
2516,800.87,0.017
2517,801.03,0.017
2518,801.20,0.017
2519,801.37,0.017
2520,801.53,0.017
2521,801.70,0.017
2522,801.86,0.017
2523,802.03,0.017
2524,802.20,0.017
2525,802.37,0.017
2526,802.53,0.017
2527,802.70,0.017
2528,802.87,0.017
2529,803.03,0.017
2530,803.20,0.017
2531,803.36,0.017
2532,803.53,0.017
2533,803.70,0.017
2534,803.86,0.017
2535,804.03,0.017
2536,804.20,0.017
2537,804.37,0.017
2538,804.53,0.017
2539,804.70,0.017
2540,804.87,0.017
2541,805.03,0.017
2542,805.20,0.017
2543,805.37,0.017
2544,805.54,0.017
2545,805.70,0.017
2546,805.87,0.017
2547,806.04,0.017
2548,806.20,0.017
2549,806.37,0.017
2550,806.53,0.017
2551,806.70,0.017
2552,806.86,0.017
2553,807.03,0.017
2554,807.20,0.017
2555,807.37,0.017
2556,807.53,0.017
2557,807.70,0.017
2558,807.87,0.017
2559,808.03,0.017
2560,808.20,0.017
2561,808.37,0.017
2562,808.54,0.017
2563,808.70,0.017
2564,808.87,0.017
2565,809.04,0.017
2566,809.20,0.017
2567,809.36,0.017
2568,809.53,0.017
2569,809.70,0.017
2570,809.87,0.017
2571,810.04,0.017
2572,810.20,0.017
2573,810.36,0.017
2574,810.53,0.017
2575,810.70,0.017
2576,810.87,0.017
2577,811.04,0.017
2578,811.20,0.017
2579,811.37,0.017
2580,811.54,0.017
2581,811.70,0.017
2582,811.86,0.017
2583,812.03,0.017
2584,812.20,0.017
2585,812.37,0.017
2586,812.54,0.017
2587,812.70,0.017
2588,812.87,0.017
2589,813.03,0.017
2590,813.20,0.017
2591,813.37,0.017
2592,813.54,0.017
2593,813.70,0.017
2594,813.87,0.017
2595,814.04,0.017
2596,814.20,0.017
2597,814.37,0.017
2598,814.53,0.017
2599,814.70,0.017
2600,814.87,0.017
2601,815.03,0.017
2602,815.20,0.017
2603,815.37,0.017
2604,815.53,0.017
2605,815.70,0.017
2606,815.87,0.017
2607,816.04,0.017
2608,816.20,0.017
2609,816.36,0.017
2610,816.53,0.017
2611,816.71,0.017
2612,816.87,0.017
2613,817.03,0.017
2614,817.21,0.017
2615,817.37,0.017
2616,817.53,0.017
2617,817.70,0.017
2618,817.86,0.017
2619,818.03,0.017
2620,818.20,0.017
2621,818.36,0.017
2622,818.53,0.017
2623,818.71,0.017
2624,818.87,0.017
2625,819.03,0.017
2626,819.20,0.017
2627,819.37,0.017
2628,819.54,0.017
2629,819.70,0.017
2630,819.87,0.017
2631,820.04,0.017
2632,820.20,0.017
2633,820.36,0.017
2634,820.54,0.017
2635,820.71,0.017
2636,820.87,0.017
2637,821.03,0.017
2638,821.20,0.017
2639,821.37,0.017
2640,821.54,0.017
2641,821.70,0.017
2642,821.87,0.017
2643,822.03,0.016
2644,822.19,0.016
2645,822.37,0.016
2646,822.54,0.016
2647,822.70,0.016
2648,822.87,0.016
2649,823.04,0.016
2650,823.20,0.016
2651,823.37,0.016
2652,823.54,0.016
2653,823.70,0.016
2654,823.86,0.016
2655,824.04,0.016
2656,824.21,0.016
2657,824.37,0.016
2658,824.54,0.016
2659,824.70,0.016
2660,824.87,0.016
2661,825.04,0.016
2662,825.21,0.016
2663,825.37,0.016
2664,825.53,0.016
2665,825.70,0.016
2666,825.87,0.016
2667,826.03,0.016
2668,826.20,0.016
2669,826.37,0.016
2670,826.54,0.016
2671,826.70,0.016
2672,826.86,0.016
2673,827.03,0.016
2674,827.21,0.016
2675,827.37,0.016
2676,827.53,0.016
2677,827.70,0.016
2678,827.87,0.016
2679,828.03,0.016
2680,828.20,0.016
2681,828.37,0.016
2682,828.53,0.016
2683,828.70,0.016
2684,828.87,0.016
2685,829.04,0.016
2686,829.20,0.016
2687,829.37,0.016
2688,829.54,0.016
2689,829.70,0.016
2690,829.87,0.016
2691,830.03,0.016
2692,830.20,0.016
2693,830.37,0.016
2694,830.54,0.016
2695,830.70,0.016
2696,830.86,0.016
2697,831.04,0.016
2698,831.20,0.016
2699,831.36,0.016
2700,831.54,0.016
2701,831.70,0.016
2702,831.87,0.016
2703,832.03,0.016
2704,832.21,0.016
2705,832.37,0.016
2706,832.53,0.016
2707,832.70,0.016
2708,832.87,0.016
2709,833.04,0.016
2710,833.20,0.016
2711,833.37,0.016
2712,833.53,0.016
2713,833.70,0.016
2714,833.87,0.016
2715,834.04,0.016
2716,834.20,0.016
2717,834.37,0.016
2718,834.53,0.016
2719,834.70,0.016
2720,834.87,0.016
2721,835.03,0.016
2722,835.20,0.016
2723,835.37,0.016
2724,835.53,0.016
2725,835.70,0.016
2726,835.88,0.016
2727,836.04,0.016
2728,836.20,0.016
2729,836.36,0.016
2730,836.53,0.016
2731,836.70,0.016
2732,836.87,0.016
2733,837.04,0.016
2734,837.21,0.016
2735,837.37,0.016
2736,837.54,0.016
2737,837.70,0.016
2738,837.86,0.016
2739,838.04,0.016
2740,838.20,0.016
2741,838.37,0.016
2742,838.54,0.016
2743,838.70,0.016
2744,838.87,0.016
2745,839.03,0.016
2746,839.21,0.016
2747,839.37,0.016
2748,839.54,0.016
2749,839.70,0.016
2750,839.87,0.016
2751,840.03,0.016
2752,840.20,0.016
2753,840.36,0.016
2754,840.53,0.016
2755,840.70,0.016
2756,840.87,0.016
2757,841.04,0.016
2758,841.20,0.016
2759,841.37,0.016
2760,841.54,0.016
2761,841.70,0.016
2762,841.87,0.016
2763,842.04,0.016
2764,842.20,0.016
2765,842.37,0.016
2766,842.54,0.016
2767,842.70,0.016
2768,842.87,0.016
2769,843.04,0.016
2770,843.21,0.016
2771,843.37,0.016
2772,843.54,0.016
2773,843.70,0.016
2774,843.87,0.016
2775,844.04,0.016
2776,844.20,0.016
2777,844.36,0.016
2778,844.54,0.016
2779,844.71,0.016
2780,844.87,0.016
2781,845.03,0.016
2782,845.20,0.016
2783,845.37,0.016
2784,845.54,0.016
2785,845.71,0.016
2786,845.86,0.016
2787,846.03,0.016
2788,846.20,0.016
2789,846.37,0.016
2790,846.54,0.016
2791,846.70,0.016
2792,846.87,0.016
2793,847.04,0.016
2794,847.20,0.016
2795,847.36,0.016
2796,847.53,0.016
2797,847.70,0.016
2798,847.87,0.016
2799,848.04,0.016
2800,848.21,0.016
2801,848.37,0.016
2802,848.54,0.016
2803,848.70,0.016
2804,848.87,0.016
2805,849.03,0.016
2806,849.21,0.016
2807,849.38,0.016
2808,849.54,0.016
2809,849.70,0.016
2810,849.87,0.016
2811,850.04,0.016
2812,850.20,0.016
2813,850.37,0.016
2814,850.54,0.016
2815,850.71,0.016
2816,850.87,0.016
2817,851.03,0.016
2818,851.20,0.016
2819,851.37,0.016
2820,851.54,0.016
2821,851.71,0.016
2822,851.87,0.016
2823,852.04,0.016
2824,852.20,0.016
2825,852.37,0.016
2826,852.54,0.016
2827,852.71,0.016
2828,852.87,0.016
2829,853.03,0.016
2830,853.21,0.016
2831,853.37,0.016
2832,853.53,0.016
2833,853.71,0.016
2834,853.87,0.016
2835,854.03,0.016
2836,854.21,0.016
2837,854.37,0.016
2838,854.54,0.016
2839,854.70,0.016
2840,854.87,0.016
2841,855.04,0.016
2842,855.20,0.016
2843,855.37,0.016
2844,855.54,0.016
2845,855.70,0.016
2846,855.87,0.016
2847,856.03,0.016
2848,856.20,0.016
2849,856.37,0.016
2850,856.54,0.016
2851,856.70,0.016
2852,856.87,0.016
2853,857.04,0.016
2854,857.21,0.016
2855,857.37,0.016
2856,857.54,0.016
2857,857.71,0.016
2858,857.87,0.016
2859,858.04,0.016
2860,858.21,0.016
2861,858.37,0.016
2862,858.53,0.016
2863,858.70,0.016
2864,858.87,0.016
2865,859.04,0.016
2866,859.20,0.016
2867,859.37,0.016
2868,859.54,0.016
2869,859.71,0.016
2870,859.87,0.016
2871,860.04,0.016
2872,860.20,0.016
2873,860.37,0.016
2874,860.54,0.016
2875,860.71,0.016
2876,860.87,0.016
2877,861.04,0.016
2878,861.21,0.016
2879,861.37,0.016
2880,861.54,0.016
2881,861.71,0.016
2882,861.87,0.016
2883,862.03,0.016
2884,862.21,0.016
2885,862.37,0.016
2886,862.54,0.016
2887,862.70,0.016
2888,862.87,0.016
2889,863.04,0.016
2890,863.20,0.016
2891,863.37,0.016
2892,863.54,0.016
2893,863.70,0.016
2894,863.87,0.016
2895,864.04,0.016
2896,864.20,0.016
2897,864.37,0.016
2898,864.54,0.016
2899,864.70,0.016
2900,864.87,0.016
2901,865.04,0.016
2902,865.21,0.016
2903,865.37,0.016
2904,865.54,0.016
2905,865.70,0.016
2906,865.87,0.016
2907,866.04,0.016
2908,866.21,0.016
2909,866.37,0.016
2910,866.53,0.016
2911,866.71,0.016
2912,866.87,0.016
2913,867.04,0.016
2914,867.20,0.016
2915,867.37,0.016
2916,867.54,0.016
2917,867.70,0.016
2918,867.88,0.016
2919,868.04,0.016
2920,868.21,0.016
2921,868.38,0.016
2922,868.54,0.016
2923,868.71,0.016
2924,868.87,0.016
2925,869.04,0.016
2926,869.21,0.016
2927,869.37,0.016
2928,869.53,0.016
2929,869.70,0.016
2930,869.87,0.016
2931,870.03,0.016
2932,870.20,0.016
2933,870.37,0.016
2934,870.54,0.016
2935,870.71,0.016
2936,870.87,0.016
2937,871.04,0.016
2938,871.21,0.016
2939,871.37,0.016
2940,871.54,0.016
2941,871.70,0.016
2942,871.87,0.016
2943,872.04,0.016
2944,872.21,0.016
2945,872.37,0.016
2946,872.54,0.016
2947,872.70,0.016
2948,872.87,0.016
2949,873.04,0.016
2950,873.21,0.016
2951,873.37,0.016
2952,873.54,0.016
2953,873.71,0.016
2954,873.88,0.016
2955,874.04,0.016
2956,874.21,0.016
2957,874.37,0.016
2958,874.53,0.016
2959,874.71,0.016
2960,874.87,0.016
2961,875.04,0.016
2962,875.21,0.016
2963,875.37,0.016
2964,875.54,0.016
2965,875.71,0.016
2966,875.88,0.016
2967,876.04,0.016
2968,876.20,0.016
2969,876.37,0.016
2970,876.54,0.016
2971,876.71,0.016
2972,876.87,0.016
2973,877.04,0.016
2974,877.20,0.016
2975,877.37,0.016
2976,877.54,0.016
2977,877.71,0.016
2978,877.87,0.016
2979,878.04,0.016
2980,878.21,0.016
2981,878.38,0.016
2982,878.54,0.016
2983,878.71,0.016
2984,878.87,0.016
2985,879.04,0.016
2986,879.21,0.016
2987,879.37,0.016
2988,879.54,0.016
2989,879.70,0.016
2990,879.87,0.016
2991,880.04,0.016
2992,880.20,0.016
2993,880.37,0.016
2994,880.54,0.016
2995,880.71,0.016
2996,880.87,0.016
2997,881.04,0.016
2998,881.21,0.016
2999,881.37,0.016
3000,881.54,0.016
3001,881.70,0.016
3002,881.87,0.016
3003,882.05,0.016
3004,882.21,0.016
3005,882.37,0.016
3006,882.54,0.016
3007,882.71,0.016
3008,882.88,0.016
3009,883.04,0.016
3010,883.20,0.016
3011,883.37,0.016
3012,883.54,0.016
3013,883.71,0.016
3014,883.87,0.016
3015,884.04,0.016
3016,884.21,0.016
3017,884.37,0.016
3018,884.54,0.016
3019,884.71,0.016
3020,884.87,0.016
3021,885.04,0.016
3022,885.21,0.016
3023,885.38,0.016
3024,885.54,0.016
3025,885.71,0.016
3026,885.87,0.016
3027,886.03,0.016
3028,886.20,0.016
3029,886.37,0.016
3030,886.54,0.016
3031,886.71,0.016
3032,886.87,0.016
3033,887.03,0.016
3034,887.21,0.016
3035,887.37,0.016
3036,887.54,0.016
3037,887.72,0.016
3038,887.87,0.016
3039,888.03,0.016
3040,888.20,0.016
3041,888.38,0.016
3042,888.54,0.016
3043,888.70,0.016
3044,888.87,0.016
3045,889.04,0.016
3046,889.20,0.016
3047,889.37,0.016
3048,889.54,0.016
3049,889.71,0.016
3050,889.87,0.016
3051,890.04,0.016
3052,890.21,0.016
3053,890.38,0.016
3054,890.54,0.016
3055,890.71,0.016
3056,890.87,0.016
3057,891.04,0.016
3058,891.21,0.016
3059,891.37,0.016
3060,891.54,0.016
3061,891.71,0.016
3062,891.88,0.016
3063,892.04,0.016
3064,892.21,0.016
3065,892.38,0.016
3066,892.54,0.016
3067,892.70,0.016
3068,892.87,0.016
3069,893.04,0.016
3070,893.21,0.016
3071,893.37,0.016
3072,893.54,0.016
3073,893.71,0.016
3074,893.87,0.016
3075,894.04,0.016
3076,894.21,0.016
3077,894.38,0.016
3078,894.54,0.016
3079,894.71,0.016
3080,894.87,0.016
3081,895.05,0.016
3082,895.21,0.016
3083,895.37,0.015
3084,895.54,0.015
3085,895.71,0.015
3086,895.87,0.015
3087,896.04,0.015
3088,896.20,0.015
3089,896.37,0.015
3090,896.54,0.015
3091,896.71,0.015
3092,896.87,0.015
3093,897.04,0.015
3094,897.21,0.015
3095,897.38,0.015
3096,897.54,0.015
3097,897.71,0.015
3098,897.87,0.015
3099,898.04,0.015
3100,898.21,0.015
3101,898.38,0.015
3102,898.54,0.015
3103,898.71,0.015
3104,898.88,0.015
3105,899.04,0.015
3106,899.21,0.015
3107,899.38,0.015
3108,899.54,0.015
3109,899.71,0.015
3110,899.87,0.015
3111,900.04,0.015
3112,900.21,0.015
3113,900.37,0.015
3114,900.54,0.015
3115,900.71,0.015
3116,900.87,0.015
3117,901.04,0.015
3118,901.21,0.015
3119,901.37,0.015
3120,901.54,0.015
3121,901.71,0.015
3122,901.88,0.015
3123,902.04,0.015
3124,902.21,0.015
3125,902.38,0.015
3126,902.55,0.015
3127,902.71,0.015
3128,902.88,0.015
3129,903.04,0.015
3130,903.20,0.015
3131,903.37,0.015
3132,903.54,0.015
3133,903.71,0.015
3134,903.87,0.015
3135,904.04,0.015
3136,904.22,0.015
3137,904.38,0.015
3138,904.54,0.015
3139,904.71,0.015
3140,904.88,0.015
3141,905.04,0.015
3142,905.21,0.015
3143,905.37,0.015
3144,905.54,0.015
3145,905.71,0.015
3146,905.88,0.015
3147,906.04,0.015
3148,906.21,0.015
3149,906.37,0.015
3150,906.54,0.015
3151,906.71,0.015
3152,906.87,0.015
3153,907.04,0.015
3154,907.21,0.015
3155,907.37,0.015
3156,907.54,0.015
3157,907.71,0.015
3158,907.87,0.015
3159,908.05,0.015
3160,908.21,0.015
3161,908.38,0.015
3162,908.54,0.015
3163,908.71,0.015
3164,908.88,0.015
3165,909.04,0.015
3166,909.20,0.015
3167,909.37,0.015
3168,909.54,0.015
3169,909.71,0.015
3170,909.88,0.015
3171,910.04,0.015
3172,910.21,0.015
3173,910.38,0.015
3174,910.54,0.015
3175,910.71,0.015
3176,910.87,0.015
3177,911.04,0.015
3178,911.21,0.015
3179,911.38,0.015
3180,911.54,0.015
3181,911.71,0.015
3182,911.87,0.015
3183,912.04,0.015
3184,912.21,0.015
3185,912.37,0.015
3186,912.54,0.015
3187,912.71,0.015
3188,912.87,0.015
3189,913.04,0.015
3190,913.21,0.015
3191,913.38,0.015
3192,913.55,0.015
3193,913.71,0.015
3194,913.87,0.015
3195,914.04,0.015
3196,914.21,0.015
3197,914.38,0.015
3198,914.55,0.015
3199,914.71,0.015
3200,914.87,0.015
3201,915.04,0.015
3202,915.21,0.015
3203,915.37,0.015
3204,915.54,0.015
3205,915.71,0.015
3206,915.87,0.015
3207,916.04,0.015
3208,916.21,0.015
3209,916.37,0.015
3210,916.55,0.015
3211,916.71,0.015
3212,916.87,0.015
3213,917.05,0.015
3214,917.21,0.015
3215,917.37,0.015
3216,917.54,0.015
3217,917.72,0.015
3218,917.88,0.015
3219,918.04,0.015
3220,918.21,0.015
3221,918.38,0.015
3222,918.54,0.015
3223,918.71,0.015
3224,918.87,0.015
3225,919.04,0.015
3226,919.21,0.015
3227,919.38,0.015
3228,919.54,0.015
3229,919.71,0.015
3230,919.88,0.015
3231,920.04,0.015
3232,920.21,0.015
3233,920.38,0.015
3234,920.54,0.015
3235,920.71,0.015
3236,920.88,0.015
3237,921.05,0.015
3238,921.21,0.015
3239,921.37,0.015
3240,921.54,0.015
3241,921.71,0.015
3242,921.87,0.015
3243,922.04,0.015
3244,922.21,0.015
3245,922.37,0.015
3246,922.54,0.015
3247,922.71,0.015
3248,922.88,0.015
3249,923.04,0.015
3250,923.21,0.015
3251,923.38,0.015
3252,923.55,0.015
3253,923.71,0.015
3254,923.88,0.015
3255,924.05,0.015
3256,924.21,0.015
3257,924.37,0.015
3258,924.54,0.015
3259,924.70,0.015
3260,924.87,0.015
3261,925.04,0.015
3262,925.21,0.015
3263,925.38,0.015
3264,925.54,0.015
3265,925.71,0.015
3266,925.88,0.015
3267,926.04,0.015
3268,926.21,0.015
3269,926.38,0.015
3270,926.54,0.015
3271,926.71,0.015
3272,926.88,0.015
3273,927.04,0.015
3274,927.21,0.015
3275,927.38,0.015
3276,927.54,0.015
3277,927.71,0.015
3278,927.87,0.015
3279,928.05,0.015
3280,928.21,0.015
3281,928.37,0.015
3282,928.54,0.015
3283,928.71,0.015
3284,928.88,0.015
3285,929.04,0.015
3286,929.21,0.015
3287,929.38,0.015
3288,929.54,0.015
3289,929.71,0.015
3290,929.88,0.015
3291,930.05,0.015
3292,930.21,0.015
3293,930.38,0.015
3294,930.55,0.015
3295,930.71,0.015
3296,930.87,0.015
3297,931.04,0.015
3298,931.22,0.015
3299,931.38,0.015
3300,931.54,0.015
3301,931.71,0.015
3302,931.88,0.015
3303,932.04,0.015
3304,932.21,0.015
3305,932.38,0.015
3306,932.55,0.015
3307,932.71,0.015
3308,932.88,0.015
3309,933.04,0.015
3310,933.21,0.015
3311,933.38,0.015
3312,933.55,0.015
3313,933.71,0.015
3314,933.87,0.015
3315,934.04,0.015
3316,934.21,0.015
3317,934.37,0.015
3318,934.54,0.015
3319,934.71,0.015
3320,934.88,0.015
3321,935.05,0.015
3322,935.21,0.015
3323,935.37,0.015
3324,935.54,0.015
3325,935.71,0.015
3326,935.88,0.015
3327,936.05,0.015
3328,936.21,0.015
3329,936.37,0.015
3330,936.54,0.015
3331,936.71,0.015
3332,936.88,0.015
3333,937.04,0.015
3334,937.21,0.015
3335,937.38,0.015
3336,937.54,0.015
3337,937.71,0.015
3338,937.88,0.015
3339,938.04,0.015
3340,938.21,0.015
3341,938.38,0.015
3342,938.54,0.015
3343,938.71,0.015
3344,938.88,0.015
3345,939.05,0.015
3346,939.21,0.015
3347,939.38,0.015
3348,939.55,0.015
3349,939.71,0.015
3350,939.87,0.015
3351,940.04,0.015
3352,940.21,0.015
3353,940.37,0.015
3354,940.54,0.015
3355,940.71,0.015
3356,940.87,0.015
3357,941.04,0.015
3358,941.21,0.015
3359,941.38,0.015
3360,941.55,0.015
3361,941.71,0.015
3362,941.88,0.015
3363,942.04,0.015
3364,942.21,0.015
3365,942.38,0.015
3366,942.54,0.015
3367,942.71,0.015
3368,942.87,0.015
3369,943.04,0.015
3370,943.21,0.015
3371,943.38,0.015
3372,943.54,0.015
3373,943.71,0.015
3374,943.88,0.015
3375,944.04,0.015
3376,944.21,0.015
3377,944.38,0.015
3378,944.54,0.015
3379,944.71,0.015
3380,944.87,0.015
3381,945.04,0.015
3382,945.21,0.015
3383,945.37,0.015
3384,945.54,0.015
3385,945.71,0.015
3386,945.88,0.015
3387,946.04,0.015
3388,946.21,0.015
3389,946.38,0.015
3390,946.55,0.015
3391,946.71,0.015
3392,946.88,0.015
3393,947.05,0.015
3394,947.22,0.015
3395,947.37,0.015
3396,947.54,0.015
3397,947.71,0.015
3398,947.88,0.015
3399,948.04,0.015
3400,948.21,0.015
3401,948.38,0.015
3402,948.54,0.015
3403,948.71,0.015
3404,948.88,0.015
3405,949.05,0.015
3406,949.21,0.015
3407,949.37,0.015
3408,949.55,0.015
3409,949.71,0.015
3410,949.88,0.015
3411,950.05,0.015
3412,950.21,0.015
3413,950.38,0.015
3414,950.55,0.015
3415,950.72,0.015
3416,950.88,0.015
3417,951.04,0.015
3418,951.21,0.015
3419,951.37,0.015
3420,951.54,0.015
3421,951.71,0.015
3422,951.87,0.015
3423,952.05,0.015
3424,952.21,0.015
3425,952.38,0.015
3426,952.54,0.015
3427,952.71,0.015
3428,952.88,0.015
3429,953.04,0.015
3430,953.22,0.015
3431,953.38,0.015
3432,953.54,0.015
3433,953.71,0.015
3434,953.88,0.015
3435,954.04,0.015
3436,954.21,0.015
3437,954.38,0.015
3438,954.55,0.015
3439,954.71,0.015
3440,954.88,0.015
3441,955.05,0.015
3442,955.21,0.015
3443,955.38,0.015
3444,955.55,0.015
3445,955.71,0.015
3446,955.88,0.015
3447,956.04,0.015
3448,956.21,0.015
3449,956.38,0.015
3450,956.55,0.015
3451,956.71,0.015
3452,956.87,0.015
3453,957.04,0.015
3454,957.21,0.015
3455,957.38,0.015
3456,957.54,0.015
3457,957.71,0.015
3458,957.88,0.015
3459,958.05,0.015
3460,958.21,0.015
3461,958.38,0.015
3462,958.55,0.015
3463,958.71,0.015
3464,958.88,0.015
3465,959.05,0.015
3466,959.21,0.015
3467,959.37,0.015
3468,959.54,0.015
3469,959.71,0.015
3470,959.88,0.015
3471,960.04,0.015
3472,960.21,0.015
3473,960.38,0.015
3474,960.54,0.015
3475,960.71,0.015
3476,960.88,0.015
3477,961.05,0.015
3478,961.21,0.015
3479,961.37,0.015
3480,961.54,0.015
3481,961.71,0.015
3482,961.88,0.015
3483,962.05,0.015
3484,962.22,0.015
3485,962.38,0.015
3486,962.54,0.015
3487,962.71,0.015
3488,962.87,0.015
3489,963.04,0.015
3490,963.21,0.015
3491,963.38,0.015
3492,963.54,0.015
3493,963.72,0.015
3494,963.88,0.015
3495,964.04,0.015
3496,964.21,0.015
3497,964.38,0.015
3498,964.54,0.015
3499,964.71,0.015
3500,964.88,0.015
3501,965.04,0.015
3502,965.21,0.015
3503,965.37,0.015
3504,965.54,0.015
3505,965.71,0.015
3506,965.88,0.015
3507,966.05,0.015
3508,966.21,0.015
3509,966.38,0.015
3510,966.55,0.015
3511,966.71,0.015
3512,966.88,0.015
3513,967.04,0.015
3514,967.21,0.015
3515,967.38,0.015
3516,967.55,0.015
3517,967.71,0.015
3518,967.87,0.015
3519,968.04,0.015
3520,968.21,0.015
3521,968.38,0.015
3522,968.54,0.015
3523,968.72,0.015
3524,968.87,0.015
3525,969.04,0.015
3526,969.21,0.015
3527,969.38,0.015
3528,969.54,0.015
3529,969.71,0.015
3530,969.88,0.015
3531,970.05,0.015
3532,970.21,0.015
3533,970.37,0.015
3534,970.54,0.015
3535,970.71,0.015
3536,970.88,0.015
3537,971.04,0.015
3538,971.21,0.015
3539,971.38,0.015
3540,971.54,0.015
3541,971.71,0.015
3542,971.87,0.015
3543,972.04,0.015
3544,972.21,0.015
3545,972.38,0.015
3546,972.55,0.015
3547,972.71,0.015
3548,972.88,0.015
3549,973.05,0.015
3550,973.21,0.015
3551,973.37,0.015
3552,973.54,0.015
3553,973.71,0.015
3554,973.87,0.015
3555,974.04,0.015
3556,974.21,0.015
3557,974.38,0.015
3558,974.54,0.015
3559,974.71,0.015
3560,974.88,0.015
3561,975.05,0.015
3562,975.21,0.015
3563,975.38,0.015
3564,975.55,0.015
3565,975.71,0.015
3566,975.87,0.015
3567,976.04,0.015
3568,976.21,0.015
3569,976.37,0.015
3570,976.55,0.015
3571,976.71,0.015
3572,976.88,0.015
3573,977.05,0.015
3574,977.21,0.015
3575,977.38,0.015
3576,977.55,0.015
3577,977.72,0.015
3578,977.88,0.015
3579,978.05,0.015
3580,978.21,0.015
3581,978.38,0.015
3582,978.54,0.015
3583,978.71,0.015
3584,978.87,0.015
3585,979.04,0.015
3586,979.21,0.015
3587,979.38,0.015
3588,979.54,0.015
3589,979.71,0.015
3590,979.88,0.015
3591,980.05,0.015
3592,980.22,0.015
3593,980.38,0.015
3594,980.54,0.015
3595,980.71,0.015
3596,980.88,0.015
3597,981.04,0.015
3598,981.21,0.015
3599,981.37,0.015
3600,981.54,0.015
3601,981.71,0.015
3602,981.88,0.015
3603,982.05,0.015
3604,982.21,0.015
3605,982.38,0.015
3606,982.54,0.015
3607,982.71,0.015
3608,982.88,0.015
3609,983.04,0.015
3610,983.21,0.015
3611,983.38,0.015
3612,983.54,0.015
3613,983.71,0.015
3614,983.87,0.015
3615,984.04,0.015
3616,984.21,0.015
3617,984.38,0.015
3618,984.54,0.015
3619,984.71,0.015
3620,984.88,0.015
3621,985.05,0.015
3622,985.21,0.015
3623,985.38,0.015
3624,985.55,0.015
3625,985.72,0.015
3626,985.88,0.015
3627,986.04,0.015
3628,986.21,0.015
3629,986.38,0.015
3630,986.55,0.015
3631,986.71,0.015
3632,986.87,0.015
3633,987.04,0.015
3634,987.21,0.015
3635,987.38,0.015
3636,987.54,0.015
3637,987.71,0.015
3638,987.88,0.015
3639,988.05,0.015
3640,988.21,0.015
3641,988.38,0.015
3642,988.54,0.015
3643,988.71,0.015
3644,988.88,0.015
3645,989.05,0.015
3646,989.21,0.015
3647,989.38,0.015
3648,989.54,0.015
3649,989.71,0.015
3650,989.88,0.015
3651,990.05,0.015
3652,990.21,0.015
3653,990.38,0.015
3654,990.55,0.015
3655,990.71,0.015
3656,990.88,0.015
3657,991.05,0.015
3658,991.22,0.015
3659,991.38,0.015
3660,991.55,0.015
3661,991.71,0.015
3662,991.88,0.015
3663,992.04,0.015
3664,992.21,0.015
3665,992.38,0.015
3666,992.55,0.015
3667,992.71,0.015
3668,992.88,0.015
3669,993.05,0.015
3670,993.21,0.015
3671,993.38,0.015
3672,993.54,0.015
3673,993.71,0.015
3674,993.88,0.015
3675,994.05,0.015
3676,994.21,0.015
3677,994.37,0.015
3678,994.54,0.015
3679,994.71,0.015
3680,994.88,0.015
3681,995.04,0.015
3682,995.21,0.015
3683,995.38,0.015
3684,995.55,0.015
3685,995.71,0.015
3686,995.87,0.015
3687,996.04,0.015
3688,996.21,0.015
3689,996.38,0.015
3690,996.55,0.015
3691,996.71,0.015
3692,996.88,0.015
3693,997.04,0.015
3694,997.21,0.015
3695,997.38,0.015
3696,997.54,0.015
3697,997.71,0.015
3698,997.88,0.015
3699,998.04,0.015
3700,998.20,0.015
3701,998.37,0.015
3702,998.55,0.015
3703,998.72,0.015
3704,998.88,0.015
3705,999.05,0.015
3706,999.21,0.015
3707,999.37,0.015
3708,999.54,0.015
3709,999.71,0.015
3710,999.88,0.015
3711,1000.04,0.015
3712,1000.21,0.015
3713,1000.38,0.015
3714,1000.54,0.015
3715,1000.71,0.015
3716,1000.88,0.015
3717,1001.04,0.015
3718,1001.21,0.015
3719,1001.38,0.015
3720,1001.54,0.015
3721,1001.71,0.015
3722,1001.88,0.015
3723,1002.04,0.015
3724,1002.21,0.015
3725,1002.38,0.015
3726,1002.54,0.015
3727,1002.71,0.015
3728,1002.88,0.015
3729,1003.05,0.015
3730,1003.21,0.015
3731,1003.38,0.015
3732,1003.55,0.015
3733,1003.71,0.015
3734,1003.88,0.015
3735,1004.05,0.015
3736,1004.22,0.015
3737,1004.38,0.015
3738,1004.55,0.015
3739,1004.71,0.015
3740,1004.88,0.015
3741,1005.04,0.015
3742,1005.21,0.015
3743,1005.38,0.015
3744,1005.54,0.016
3745,1005.71,0.015
3746,1005.88,0.015
3747,1006.05,0.015
3748,1006.21,0.015
3749,1006.38,0.015
3750,1006.55,0.015
3751,1006.71,0.015
3752,1006.87,0.015
3753,1007.04,0.015
3754,1007.21,0.015
3755,1007.38,0.015
3756,1007.54,0.015
3757,1007.71,0.015
3758,1007.88,0.015
3759,1008.05,0.015
3760,1008.21,0.015
3761,1008.38,0.015
3762,1008.55,0.015
3763,1008.72,0.015
3764,1008.88,0.015
3765,1009.04,0.015
3766,1009.21,0.015
3767,1009.38,0.015
3768,1009.55,0.015
3769,1009.71,0.015
3770,1009.88,0.015
3771,1010.04,0.015
3772,1010.21,0.015
3773,1010.38,0.015
3774,1010.55,0.015
3775,1010.71,0.015
3776,1010.88,0.015
3777,1011.05,0.015
3778,1011.21,0.015
3779,1011.38,0.015
3780,1011.54,0.015
3781,1011.71,0.015
3782,1011.87,0.015
3783,1012.04,0.015
3784,1012.21,0.015
3785,1012.38,0.015
3786,1012.54,0.015
3787,1012.71,0.015
3788,1012.87,0.015
3789,1013.04,0.015
3790,1013.22,0.015
3791,1013.38,0.015
3792,1013.54,0.015
3793,1013.71,0.015
3794,1013.88,0.015
3795,1014.04,0.015
3796,1014.21,0.015
3797,1014.37,0.015
3798,1014.55,0.015
3799,1014.71,0.015
3800,1014.88,0.015
3801,1015.04,0.015
3802,1015.21,0.015
3803,1015.38,0.015
3804,1015.55,0.015
3805,1015.72,0.015
3806,1015.88,0.015
3807,1016.05,0.015
3808,1016.21,0.015
3809,1016.39,0.015
3810,1016.55,0.015
3811,1016.71,0.015
3812,1016.88,0.015
3813,1017.04,0.015
3814,1017.21,0.015
3815,1017.38,0.015
3816,1017.54,0.015
3817,1017.71,0.015
3818,1017.88,0.015
3819,1018.04,0.015
3820,1018.21,0.015
3821,1018.38,0.015
3822,1018.55,0.015
3823,1018.72,0.015
3824,1018.88,0.015
3825,1019.04,0.015
3826,1019.21,0.015
3827,1019.37,0.015
3828,1019.55,0.015
3829,1019.71,0.015
3830,1019.87,0.015
3831,1020.05,0.015
3832,1020.21,0.015
3833,1020.38,0.015
3834,1020.55,0.015
3835,1020.71,0.015
3836,1020.87,0.015
3837,1021.04,0.015
3838,1021.21,0.015
3839,1021.38,0.015
3840,1021.54,0.015
3841,1021.71,0.015
3842,1021.88,0.015
3843,1022.05,0.015
3844,1022.21,0.015
3845,1022.38,0.015
3846,1022.54,0.015
3847,1022.71,0.015
3848,1022.88,0.015
3849,1023.04,0.015
3850,1023.21,0.015
3851,1023.38,0.015
3852,1023.55,0.015
3853,1023.71,0.015
3854,1023.88,0.015
3855,1024.04,0.015
3856,1024.21,0.015
3857,1024.38,0.015
3858,1024.55,0.015
3859,1024.71,0.015
3860,1024.88,0.015
3861,1025.04,0.015
3862,1025.21,0.015
3863,1025.38,0.015
3864,1025.55,0.015
3865,1025.72,0.015
3866,1025.88,0.015
3867,1026.04,0.015
3868,1026.21,0.015
3869,1026.38,0.015
3870,1026.54,0.015
3871,1026.71,0.015
3872,1026.88,0.015
3873,1027.05,0.015
3874,1027.21,0.015
3875,1027.38,0.015
3876,1027.54,0.015
3877,1027.72,0.015
3878,1027.88,0.015
3879,1028.05,0.015
3880,1028.22,0.015
3881,1028.38,0.015
3882,1028.54,0.015
3883,1028.70,0.015
3884,1028.88,0.015
3885,1029.04,0.015
3886,1029.21,0.015
3887,1029.38,0.015
3888,1029.55,0.015
3889,1029.71,0.015
3890,1029.88,0.015
3891,1030.05,0.015
3892,1030.21,0.015
3893,1030.38,0.015
3894,1030.55,0.015
3895,1030.71,0.015
3896,1030.88,0.015
3897,1031.04,0.015
3898,1031.20,0.015
3899,1031.38,0.015
3900,1031.55,0.015
3901,1031.71,0.015
3902,1031.88,0.015
3903,1032.05,0.015
3904,1032.21,0.015
3905,1032.38,0.015
3906,1032.55,0.015
3907,1032.71,0.015
3908,1032.88,0.015
3909,1033.05,0.015
3910,1033.21,0.015
3911,1033.37,0.015
3912,1033.54,0.015
3913,1033.71,0.015
3914,1033.88,0.015
3915,1034.04,0.015
3916,1034.21,0.015
3917,1034.38,0.015
3918,1034.54,0.015
3919,1034.71,0.015
3920,1034.88,0.015
3921,1035.04,0.015
3922,1035.21,0.015
3923,1035.37,0.015
3924,1035.54,0.015
3925,1035.71,0.015
3926,1035.88,0.015
3927,1036.04,0.015
3928,1036.21,0.015
3929,1036.38,0.015
3930,1036.54,0.015
3931,1036.71,0.015
3932,1036.88,0.015
3933,1037.05,0.015
3934,1037.21,0.015
3935,1037.37,0.015
3936,1037.54,0.015
3937,1037.71,0.015
3938,1037.88,0.015
3939,1038.05,0.015
3940,1038.21,0.015
3941,1038.38,0.015
3942,1038.54,0.015
3943,1038.71,0.015
3944,1038.88,0.015
3945,1039.05,0.015
3946,1039.21,0.015
3947,1039.38,0.015
3948,1039.55,0.015
3949,1039.71,0.015
3950,1039.88,0.015
3951,1040.05,0.015
3952,1040.22,0.015
3953,1040.38,0.015
3954,1040.54,0.015
3955,1040.71,0.015
3956,1040.87,0.015
3957,1041.05,0.015
3958,1041.21,0.015
3959,1041.38,0.015
3960,1041.55,0.015
3961,1041.71,0.015
3962,1041.88,0.015
3963,1042.05,0.015
3964,1042.22,0.015
3965,1042.38,0.015
3966,1042.54,0.015
3967,1042.71,0.015
3968,1042.88,0.015
3969,1043.04,0.015
3970,1043.21,0.015
3971,1043.38,0.015
3972,1043.54,0.015
3973,1043.71,0.015
3974,1043.88,0.015
3975,1044.04,0.015
3976,1044.21,0.015
3977,1044.38,0.015
3978,1044.55,0.015
3979,1044.71,0.015
3980,1044.87,0.015
3981,1045.04,0.015
3982,1045.21,0.015
3983,1045.37,0.015
3984,1045.54,0.015
3985,1045.71,0.015
3986,1045.88,0.015
3987,1046.05,0.015
3988,1046.21,0.015
3989,1046.38,0.015
3990,1046.54,0.015
3991,1046.71,0.015
3992,1046.88,0.015
3993,1047.05,0.015
3994,1047.21,0.015
3995,1047.37,0.015
3996,1047.54,0.015
3997,1047.71,0.015
3998,1047.87,0.015
3999,1048.04,0.015
4000,1048.21,0.015
4001,1048.38,0.015
4002,1048.55,0.015
4003,1048.71,0.015
4004,1048.88,0.015
4005,1049.04,0.015
4006,1049.22,0.015
4007,1049.38,0.015
4008,1049.55,0.015
4009,1049.70,0.015
4010,1049.88,0.015
4011,1050.04,0.015
4012,1050.21,0.015
4013,1050.38,0.015
4014,1050.55,0.015
4015,1050.71,0.015
4016,1050.88,0.015
4017,1051.05,0.015
4018,1051.21,0.015
4019,1051.37,0.015
4020,1051.54,0.015
4021,1051.70,0.015
4022,1051.87,0.015
4023,1052.04,0.015
4024,1052.21,0.015
4025,1052.38,0.015
4026,1052.54,0.015
4027,1052.71,0.015
4028,1052.88,0.015
4029,1053.05,0.015
4030,1053.20,0.015
4031,1053.37,0.015
4032,1053.54,0.015
4033,1053.71,0.015
4034,1053.88,0.015
4035,1054.04,0.015
4036,1054.21,0.015
4037,1054.38,0.015
4038,1054.54,0.015
4039,1054.72,0.015
4040,1054.87,0.015
4041,1055.04,0.015
4042,1055.22,0.015
4043,1055.38,0.015
4044,1055.55,0.015
4045,1055.71,0.015
4046,1055.88,0.015
4047,1056.05,0.015
4048,1056.21,0.015
4049,1056.37,0.015
4050,1056.54,0.015
4051,1056.71,0.015
4052,1056.87,0.015
4053,1057.04,0.015
4054,1057.21,0.015
4055,1057.38,0.015
4056,1057.55,0.015
4057,1057.71,0.015
4058,1057.88,0.015
4059,1058.05,0.015
4060,1058.21,0.015
4061,1058.37,0.015
4062,1058.54,0.015
4063,1058.71,0.015
4064,1058.87,0.015
4065,1059.04,0.015
4066,1059.21,0.015
4067,1059.38,0.015
4068,1059.54,0.015
4069,1059.71,0.015
4070,1059.88,0.015
4071,1060.04,0.015
4072,1060.21,0.015
4073,1060.37,0.015
4074,1060.54,0.015
4075,1060.71,0.015
4076,1060.87,0.015
4077,1061.04,0.015
4078,1061.21,0.015
4079,1061.38,0.015
4080,1061.54,0.015
4081,1061.71,0.015
4082,1061.88,0.015
4083,1062.04,0.015
4084,1062.21,0.015
4085,1062.38,0.015
4086,1062.55,0.015
4087,1062.71,0.015
4088,1062.88,0.015
4089,1063.04,0.015
4090,1063.21,0.015
4091,1063.37,0.015
4092,1063.54,0.015
4093,1063.71,0.015
4094,1063.88,0.015
4095,1064.04,0.015
4096,1064.21,0.015
4097,1064.38,0.015
4098,1064.55,0.015
4099,1064.72,0.015
4100,1064.88,0.015
4101,1065.04,0.015
4102,1065.20,0.015
4103,1065.37,0.015
4104,1065.54,0.015
4105,1065.71,0.015
4106,1065.87,0.015
4107,1066.05,0.015
4108,1066.21,0.015
4109,1066.38,0.015
4110,1066.55,0.015
4111,1066.71,0.015
4112,1066.87,0.015
4113,1067.04,0.015
4114,1067.20,0.015
4115,1067.38,0.015
4116,1067.54,0.015
4117,1067.71,0.015
4118,1067.88,0.015
4119,1068.04,0.015
4120,1068.21,0.015
4121,1068.38,0.015
4122,1068.54,0.015
4123,1068.71,0.015
4124,1068.88,0.015
4125,1069.05,0.015
4126,1069.21,0.015
4127,1069.37,0.015
4128,1069.54,0.015
4129,1069.71,0.015
4130,1069.87,0.015
4131,1070.04,0.015
4132,1070.21,0.015
4133,1070.38,0.015
4134,1070.54,0.015
4135,1070.71,0.015
4136,1070.88,0.015
4137,1071.05,0.015
4138,1071.21,0.015
4139,1071.38,0.015
4140,1071.54,0.015
4141,1071.70,0.015
4142,1071.87,0.015
4143,1072.05,0.015
4144,1072.21,0.015
4145,1072.37,0.015
4146,1072.54,0.015
4147,1072.71,0.015
4148,1072.88,0.015
4149,1073.04,0.015
4150,1073.21,0.015
4151,1073.37,0.015
4152,1073.54,0.015
4153,1073.71,0.015
4154,1073.87,0.015
4155,1074.04,0.015
4156,1074.21,0.015
4157,1074.37,0.015
4158,1074.55,0.015
4159,1074.71,0.015
4160,1074.87,0.015
4161,1075.05,0.015
4162,1075.22,0.015
4163,1075.37,0.015
4164,1075.54,0.015
4165,1075.71,0.015
4166,1075.87,0.015
4167,1076.04,0.015
4168,1076.21,0.015
4169,1076.38,0.015
4170,1076.54,0.015
4171,1076.71,0.015
4172,1076.88,0.015
4173,1077.05,0.015
4174,1077.21,0.015
4175,1077.38,0.015
4176,1077.55,0.015
4177,1077.71,0.015
4178,1077.87,0.015
4179,1078.04,0.015
4180,1078.21,0.015
4181,1078.37,0.015
4182,1078.54,0.015
4183,1078.71,0.015
4184,1078.88,0.015
4185,1079.04,0.015
4186,1079.21,0.015
4187,1079.38,0.015
4188,1079.54,0.015
4189,1079.71,0.015
4190,1079.87,0.015
4191,1080.04,0.015
4192,1080.21,0.015
4193,1080.37,0.015
4194,1080.54,0.015
4195,1080.71,0.015
4196,1080.88,0.015
4197,1081.04,0.015
4198,1081.21,0.015
4199,1081.38,0.015
4200,1081.54,0.015
4201,1081.71,0.015
4202,1081.87,0.015
4203,1082.04,0.015
4204,1082.20,0.015
4205,1082.38,0.015
4206,1082.54,0.015
4207,1082.70,0.015
4208,1082.88,0.015
4209,1083.04,0.015
4210,1083.21,0.015
4211,1083.38,0.015
4212,1083.54,0.015
4213,1083.71,0.015
4214,1083.88,0.015
4215,1084.04,0.015
4216,1084.20,0.015
4217,1084.38,0.015
4218,1084.54,0.015
4219,1084.70,0.015
4220,1084.88,0.015
4221,1085.04,0.015
4222,1085.21,0.015
4223,1085.38,0.015
4224,1085.54,0.015
4225,1085.71,0.015
4226,1085.88,0.015
4227,1086.04,0.015
4228,1086.21,0.015
4229,1086.37,0.015
4230,1086.54,0.015
4231,1086.71,0.015
4232,1086.88,0.015
4233,1087.05,0.015
4234,1087.21,0.015
4235,1087.38,0.015
4236,1087.55,0.015
4237,1087.71,0.015
4238,1087.88,0.015
4239,1088.05,0.015
4240,1088.21,0.015
4241,1088.38,0.015
4242,1088.54,0.015
4243,1088.71,0.015
4244,1088.88,0.015
4245,1089.04,0.015
4246,1089.20,0.015
4247,1089.38,0.015
4248,1089.54,0.015
4249,1089.71,0.015
4250,1089.88,0.015
4251,1090.05,0.015
4252,1090.21,0.015
4253,1090.38,0.015
4254,1090.54,0.015
4255,1090.70,0.015
4256,1090.88,0.015
4257,1091.04,0.015
4258,1091.21,0.015
4259,1091.37,0.015
4260,1091.54,0.015
4261,1091.71,0.015
4262,1091.88,0.015
4263,1092.04,0.015
4264,1092.21,0.015
4265,1092.37,0.015
4266,1092.54,0.015
4267,1092.71,0.015
4268,1092.87,0.015
4269,1093.04,0.015
4270,1093.21,0.015
4271,1093.37,0.015
4272,1093.54,0.015
4273,1093.71,0.015
4274,1093.88,0.015
4275,1094.05,0.015
4276,1094.21,0.015
4277,1094.37,0.015
4278,1094.54,0.015
4279,1094.71,0.015
4280,1094.87,0.015
4281,1095.04,0.015
4282,1095.21,0.015
4283,1095.37,0.015
4284,1095.54,0.014
4285,1095.71,0.014
4286,1095.88,0.014
4287,1096.04,0.014
4288,1096.21,0.014
4289,1096.38,0.014
4290,1096.54,0.014
4291,1096.71,0.014
4292,1096.87,0.014
4293,1097.04,0.014
4294,1097.21,0.014
4295,1097.38,0.014
4296,1097.54,0.014
4297,1097.71,0.014
4298,1097.88,0.014
4299,1098.05,0.014
4300,1098.21,0.014
4301,1098.37,0.014
4302,1098.54,0.014
4303,1098.70,0.014
4304,1098.87,0.014
4305,1099.04,0.014
4306,1099.20,0.014
4307,1099.38,0.014
4308,1099.54,0.014
4309,1099.71,0.014
4310,1099.88,0.014
4311,1100.05,0.014
4312,1100.21,0.014
4313,1100.38,0.014
4314,1100.54,0.014
4315,1100.70,0.014
4316,1100.88,0.014
4317,1101.04,0.014
4318,1101.21,0.014
4319,1101.37,0.014
4320,1101.54,0.014
4321,1101.71,0.014
4322,1101.88,0.014
4323,1102.04,0.014
4324,1102.20,0.014
4325,1102.37,0.014
4326,1102.54,0.014
4327,1102.71,0.014
4328,1102.88,0.014
4329,1103.04,0.014
4330,1103.21,0.014
4331,1103.38,0.014
4332,1103.54,0.014
4333,1103.71,0.014
4334,1103.88,0.014
4335,1104.04,0.014
4336,1104.20,0.014
4337,1104.37,0.014
4338,1104.54,0.014
4339,1104.71,0.014
4340,1104.87,0.014
4341,1105.04,0.014
4342,1105.21,0.014
4343,1105.38,0.014
4344,1105.55,0.014
4345,1105.71,0.014
4346,1105.88,0.014
4347,1106.05,0.014
4348,1106.21,0.014
4349,1106.38,0.014
4350,1106.54,0.014
4351,1106.70,0.014
4352,1106.88,0.014
4353,1107.04,0.014
4354,1107.21,0.014
4355,1107.38,0.014
4356,1107.54,0.014
4357,1107.70,0.014
4358,1107.87,0.014
4359,1108.04,0.014
4360,1108.20,0.014
4361,1108.37,0.014
4362,1108.54,0.014
4363,1108.71,0.014
4364,1108.87,0.014
4365,1109.05,0.014
4366,1109.21,0.014
4367,1109.38,0.014
4368,1109.55,0.014
4369,1109.71,0.014
4370,1109.88,0.014
4371,1110.05,0.014
4372,1110.21,0.014
4373,1110.37,0.014
4374,1110.54,0.014
4375,1110.71,0.014
4376,1110.87,0.014
4377,1111.04,0.014
4378,1111.21,0.014
4379,1111.38,0.014
4380,1111.55,0.014
4381,1111.70,0.014
4382,1111.87,0.014
4383,1112.04,0.014
4384,1112.20,0.014
4385,1112.38,0.014
4386,1112.54,0.014
4387,1112.71,0.014
4388,1112.88,0.014
4389,1113.04,0.014
4390,1113.21,0.014
4391,1113.38,0.014
4392,1113.54,0.014
4393,1113.72,0.014
4394,1113.88,0.014
4395,1114.04,0.014
4396,1114.21,0.014
4397,1114.37,0.014
4398,1114.54,0.014
4399,1114.71,0.014
4400,1114.87,0.014
4401,1115.05,0.014
4402,1115.21,0.014
4403,1115.37,0.014
4404,1115.55,0.014
4405,1115.71,0.014
4406,1115.88,0.014
4407,1116.04,0.014
4408,1116.20,0.014
4409,1116.37,0.014
4410,1116.54,0.014
4411,1116.71,0.014
4412,1116.87,0.014
4413,1117.05,0.014
4414,1117.21,0.014
4415,1117.37,0.014
4416,1117.54,0.014
4417,1117.71,0.014
4418,1117.87,0.014
4419,1118.04,0.014
4420,1118.21,0.014
4421,1118.38,0.014
4422,1118.54,0.014
4423,1118.71,0.014
4424,1118.87,0.014
4425,1119.04,0.014
4426,1119.21,0.014
4427,1119.38,0.014
4428,1119.55,0.014
4429,1119.71,0.014
4430,1119.88,0.014
4431,1120.04,0.014
4432,1120.21,0.014
4433,1120.37,0.014
4434,1120.53,0.014
4435,1120.71,0.014
4436,1120.88,0.014
4437,1121.04,0.014
4438,1121.21,0.014
4439,1121.38,0.014
4440,1121.54,0.014
4441,1121.71,0.014
4442,1121.87,0.014
4443,1122.04,0.014
4444,1122.21,0.014
4445,1122.37,0.014
4446,1122.54,0.014
4447,1122.71,0.014
4448,1122.87,0.014
4449,1123.04,0.014
4450,1123.21,0.014
4451,1123.38,0.014
4452,1123.54,0.014
4453,1123.70,0.014
4454,1123.87,0.014
4455,1124.04,0.014
4456,1124.20,0.014
4457,1124.38,0.014
4458,1124.54,0.014
4459,1124.71,0.014
4460,1124.88,0.014
4461,1125.04,0.014
4462,1125.21,0.014
4463,1125.38,0.014
4464,1125.54,0.014
4465,1125.70,0.014
4466,1125.88,0.014
4467,1126.04,0.014
4468,1126.20,0.014
4469,1126.38,0.014
4470,1126.54,0.014
4471,1126.71,0.014
4472,1126.88,0.014
4473,1127.04,0.014
4474,1127.21,0.014
4475,1127.37,0.014
4476,1127.54,0.014
4477,1127.70,0.014
4478,1127.87,0.014
4479,1128.04,0.014
4480,1128.21,0.014
4481,1128.37,0.014
4482,1128.54,0.014
4483,1128.71,0.014
4484,1128.87,0.014
4485,1129.03,0.014
4486,1129.20,0.014
4487,1129.37,0.014
4488,1129.54,0.014
4489,1129.70,0.014
4490,1129.87,0.014
4491,1130.04,0.014
4492,1130.21,0.014
4493,1130.38,0.014
4494,1130.54,0.014
4495,1130.71,0.014
4496,1130.87,0.014
4497,1131.04,0.014
4498,1131.20,0.014
4499,1131.37,0.014
4500,1131.54,0.014
4501,1131.70,0.014
4502,1131.87,0.014
4503,1132.04,0.014
4504,1132.21,0.014
4505,1132.38,0.014
4506,1132.55,0.014
4507,1132.71,0.014
4508,1132.87,0.014
4509,1133.03,0.014
4510,1133.21,0.014
4511,1133.37,0.014
4512,1133.54,0.014
4513,1133.71,0.014
4514,1133.87,0.014
4515,1134.04,0.014
4516,1134.21,0.014
4517,1134.37,0.013
4518,1134.53,0.013
4519,1134.70,0.013
4520,1134.87,0.013
4521,1135.04,0.013
4522,1135.21,0.013
4523,1135.38,0.013
4524,1135.54,0.013
4525,1135.71,0.013
4526,1135.88,0.013
4527,1136.04,0.013
4528,1136.20,0.013
4529,1136.37,0.013
4530,1136.53,0.013
4531,1136.70,0.013
4532,1136.87,0.013
4533,1137.05,0.013
4534,1137.21,0.013
4535,1137.37,0.013
4536,1137.55,0.013
4537,1137.71,0.013
4538,1137.87,0.013
4539,1138.04,0.013
4540,1138.21,0.013
4541,1138.38,0.013
4542,1138.54,0.013
4543,1138.70,0.013
4544,1138.88,0.013
4545,1139.04,0.013
4546,1139.21,0.013
4547,1139.37,0.013
4548,1139.54,0.013
4549,1139.71,0.013
4550,1139.87,0.013
4551,1140.04,0.013
4552,1140.20,0.013
4553,1140.37,0.013
4554,1140.54,0.013
4555,1140.70,0.013
4556,1140.88,0.013
4557,1141.04,0.013
4558,1141.21,0.013
4559,1141.38,0.013
4560,1141.55,0.013
4561,1141.71,0.013
4562,1141.87,0.013
4563,1142.03,0.013
4564,1142.21,0.013
4565,1142.37,0.013
4566,1142.54,0.013
4567,1142.71,0.013
4568,1142.87,0.013
4569,1143.04,0.013
4570,1143.21,0.013
4571,1143.37,0.013
4572,1143.54,0.013
4573,1143.71,0.013
4574,1143.87,0.013
4575,1144.03,0.013
4576,1144.21,0.013
4577,1144.37,0.013
4578,1144.54,0.013
4579,1144.71,0.013
4580,1144.87,0.013
4581,1145.04,0.013
4582,1145.21,0.013
4583,1145.38,0.013
4584,1145.54,0.013
4585,1145.70,0.013
4586,1145.87,0.013
4587,1146.04,0.013
4588,1146.21,0.013
4589,1146.38,0.013
4590,1146.54,0.013
4591,1146.71,0.013
4592,1146.88,0.013
4593,1147.05,0.013
4594,1147.21,0.013
4595,1147.37,0.013
4596,1147.53,0.013
4597,1147.70,0.013
4598,1147.87,0.013
4599,1148.04,0.013
4600,1148.21,0.013
4601,1148.37,0.013
4602,1148.54,0.013
4603,1148.71,0.013
4604,1148.87,0.013
4605,1149.04,0.013
4606,1149.20,0.013
4607,1149.37,0.013
4608,1149.54,0.013
4609,1149.71,0.013
4610,1149.87,0.013
4611,1150.04,0.013
4612,1150.21,0.013
4613,1150.37,0.013
4614,1150.54,0.013
4615,1150.71,0.013
4616,1150.87,0.013
4617,1151.03,0.013
4618,1151.20,0.013
4619,1151.38,0.013
4620,1151.54,0.013
4621,1151.71,0.013
4622,1151.87,0.013
4623,1152.04,0.013
4624,1152.20,0.013
4625,1152.37,0.013
4626,1152.54,0.013
4627,1152.70,0.013
4628,1152.87,0.013
4629,1153.04,0.013
4630,1153.20,0.013
4631,1153.38,0.013
4632,1153.54,0.013
4633,1153.70,0.013
4634,1153.87,0.013
4635,1154.04,0.013
4636,1154.20,0.013
4637,1154.37,0.013
4638,1154.54,0.013
4639,1154.70,0.013
4640,1154.88,0.013
4641,1155.04,0.013
4642,1155.21,0.013
4643,1155.38,0.013
4644,1155.54,0.013
4645,1155.71,0.013
4646,1155.88,0.013
4647,1156.04,0.013
4648,1156.20,0.013
4649,1156.37,0.013
4650,1156.54,0.013
4651,1156.70,0.013
4652,1156.88,0.013
4653,1157.04,0.013
4654,1157.21,0.013
4655,1157.38,0.013
4656,1157.55,0.013
4657,1157.71,0.013
4658,1157.86,0.013
4659,1158.04,0.013
4660,1158.20,0.013
4661,1158.37,0.013
4662,1158.54,0.013
4663,1158.71,0.013
4664,1158.88,0.013
4665,1159.04,0.013
4666,1159.20,0.013
4667,1159.37,0.013
4668,1159.53,0.013
4669,1159.70,0.013
4670,1159.87,0.013
4671,1160.04,0.013
4672,1160.21,0.013
4673,1160.37,0.013
4674,1160.54,0.013
4675,1160.71,0.013
4676,1160.87,0.013
4677,1161.04,0.013
4678,1161.20,0.013
4679,1161.37,0.013
4680,1161.54,0.013
4681,1161.71,0.013
4682,1161.87,0.013
4683,1162.04,0.013
4684,1162.21,0.013
4685,1162.37,0.013
4686,1162.54,0.013
4687,1162.70,0.013
4688,1162.87,0.013
4689,1163.04,0.013
4690,1163.20,0.013
4691,1163.38,0.013
4692,1163.54,0.012
4693,1163.71,0.012
4694,1163.87,0.012
4695,1164.04,0.012
4696,1164.21,0.012
4697,1164.37,0.012
4698,1164.54,0.012
4699,1164.70,0.012
4700,1164.88,0.012
4701,1165.04,0.012
4702,1165.21,0.012
4703,1165.37,0.012
4704,1165.54,0.012
4705,1165.70,0.012
4706,1165.87,0.012
4707,1166.04,0.012
4708,1166.20,0.012
4709,1166.37,0.012
4710,1166.54,0.012
4711,1166.70,0.012
4712,1166.87,0.012
4713,1167.04,0.012
4714,1167.21,0.012
4715,1167.38,0.012
4716,1167.54,0.012
4717,1167.71,0.012
4718,1167.87,0.012
4719,1168.03,0.012
4720,1168.20,0.012
4721,1168.38,0.012
4722,1168.53,0.012
4723,1168.71,0.012
4724,1168.88,0.012
4725,1169.04,0.012
4726,1169.20,0.012
4727,1169.37,0.012
4728,1169.54,0.012
4729,1169.70,0.012
4730,1169.87,0.012
4731,1170.03,0.012
4732,1170.21,0.012
4733,1170.37,0.012
4734,1170.54,0.012
4735,1170.71,0.012
4736,1170.87,0.012
4737,1171.04,0.012
4738,1171.20,0.012
4739,1171.37,0.012