Time (s),Temperature (K),Weight (mg)
0,383.15,4.615
1,383.15,4.615
2,383.15,4.615
3,383.15,4.615
4,383.15,4.615
5,383.15,4.615
6,383.15,4.615
7,383.15,4.615
8,383.15,4.615
9,383.16,4.615
10,383.18,4.615
11,383.21,4.615
12,383.26,4.615
13,383.32,4.615
14,383.38,4.615
15,383.45,4.615
16,383.51,4.615
17,383.58,4.615
18,383.65,4.615
19,383.72,4.615
20,383.79,4.616
21,383.86,4.616
22,383.93,4.616
23,383.99,4.616
24,384.06,4.616
25,384.13,4.616
26,384.20,4.616
27,384.27,4.616
28,384.34,4.616
29,384.42,4.616
30,384.49,4.616
31,384.56,4.616
32,384.64,4.616
33,384.71,4.616
34,384.79,4.616
35,384.86,4.616
36,384.94,4.616
37,385.00,4.616
38,385.08,4.616
39,385.16,4.616
40,385.24,4.616
41,385.31,4.616
42,385.39,4.616
43,385.46,4.616
44,385.54,4.616
45,385.61,4.616
46,385.70,4.616
47,385.77,4.616
48,385.84,4.616
49,385.92,4.616
50,386.00,4.616
51,386.08,4.616
52,386.16,4.616
53,386.24,4.616
54,386.32,4.616
55,386.40,4.616
56,386.48,4.616
57,386.56,4.616
58,386.64,4.616
59,386.71,4.616
60,386.79,4.616
61,386.87,4.616
62,386.95,4.616
63,387.04,4.616
64,387.12,4.616
65,387.20,4.616
66,387.28,4.616
67,387.36,4.616
68,387.43,4.616
69,387.51,4.616
70,387.60,4.616
71,387.68,4.616
72,387.76,4.616
73,387.84,4.616
74,387.92,4.616
75,388.00,4.616
76,388.09,4.616
77,388.17,4.616
78,388.25,4.616
79,388.34,4.616
80,388.41,4.616
81,388.49,4.616
82,388.57,4.616
83,388.66,4.616
84,388.74,4.616
85,388.83,4.616
86,388.90,4.616
87,388.98,4.616
88,389.07,4.616
89,389.15,4.616
90,389.23,4.616
91,389.32,4.616
92,389.40,4.616
93,389.48,4.616
94,389.56,4.616
95,389.65,4.616
96,389.73,4.616
97,389.81,4.616
98,389.89,4.616
99,389.97,4.616
100,390.06,4.616
101,390.14,4.616
102,390.23,4.616
103,390.31,4.616
104,390.39,4.616
105,390.48,4.616
106,390.56,4.616
107,390.64,4.616
108,390.72,4.616
109,390.80,4.616
110,390.88,4.616
111,390.97,4.616
112,391.06,4.616
113,391.14,4.616
114,391.22,4.616
115,391.31,4.616
116,391.38,4.616
117,391.47,4.616
118,391.55,4.616
119,391.63,4.616
120,391.72,4.616
121,391.80,4.616
122,391.89,4.616
123,391.97,4.616
124,392.05,4.616
125,392.13,4.616
126,392.22,4.616
127,392.30,4.616
128,392.39,4.616
129,392.47,4.616
130,392.56,4.616
131,392.64,4.616
132,392.72,4.616
133,392.80,4.616
134,392.88,4.616
135,392.96,4.616
136,393.05,4.616
137,393.13,4.616
138,393.22,4.616
139,393.30,4.616
140,393.39,4.616
141,393.47,4.616
142,393.56,4.616
143,393.64,4.616
144,393.72,4.615
145,393.80,4.615
146,393.89,4.615
147,393.97,4.615
148,394.05,4.615
149,394.14,4.615
150,394.22,4.615
151,394.31,4.615
152,394.39,4.615
153,394.48,4.615
154,394.55,4.615
155,394.64,4.615
156,394.71,4.615
157,394.80,4.615
158,394.89,4.615
159,394.97,4.615
160,395.06,4.615
161,395.15,4.615
162,395.23,4.615
163,395.30,4.615
164,395.39,4.615
165,395.47,4.615
166,395.56,4.615
167,395.65,4.615
168,395.73,4.615
169,395.81,4.615
170,395.90,4.615
171,395.98,4.615
172,396.06,4.615
173,396.13,4.615
174,396.21,4.615
175,396.30,4.615
176,396.39,4.615
177,396.48,4.615
178,396.57,4.615
179,396.64,4.615
180,396.73,4.615
181,396.80,4.615
182,396.88,4.615
183,396.97,4.615
184,397.06,4.615
185,397.15,4.615
186,397.23,4.615
187,397.31,4.615
188,397.40,4.615
189,397.48,4.615
190,397.56,4.615
191,397.64,4.615
192,397.72,4.615
193,397.81,4.615
194,397.89,4.615
195,397.98,4.615
196,398.06,4.615
197,398.15,4.615
198,398.23,4.615
199,398.31,4.615
200,398.39,4.615
201,398.48,4.615
202,398.57,4.615
203,398.65,4.615
204,398.73,4.615
205,398.81,4.615
206,398.90,4.615
207,398.98,4.615
208,399.06,4.615
209,399.14,4.615
210,399.23,4.615
211,399.32,4.615
212,399.40,4.615
213,399.48,4.615
214,399.56,4.615
215,399.65,4.615
216,399.73,4.615
217,399.82,4.615
218,399.90,4.615
219,399.99,4.615
220,400.07,4.615
221,400.15,4.615
222,400.24,4.615
223,400.32,4.615
224,400.40,4.615
225,400.48,4.615
226,400.57,4.615
227,400.65,4.615
228,400.74,4.615
229,400.82,4.615
230,400.90,4.615
231,400.99,4.615
232,401.07,4.615
233,401.16,4.615
234,401.23,4.615
235,401.32,4.615
236,401.41,4.615
237,401.49,4.615
238,401.57,4.615
239,401.65,4.615
240,401.74,4.615
241,401.83,4.615
242,401.91,4.615
243,401.99,4.614
244,402.07,4.614
245,402.15,4.614
246,402.24,4.614
247,402.32,4.614
248,402.42,4.614
249,402.50,4.614
250,402.58,4.614
251,402.66,4.614
252,402.74,4.614
253,402.82,4.614
254,402.91,4.614
255,402.99,4.614
256,403.08,4.614
257,403.16,4.614
258,403.25,4.614
259,403.33,4.614
260,403.41,4.614
261,403.49,4.614
262,403.58,4.614
263,403.66,4.614
264,403.74,4.614
265,403.83,4.614
266,403.92,4.614
267,404.00,4.614
268,404.08,4.614
269,404.16,4.614
270,404.25,4.614
271,404.33,4.614
272,404.42,4.614
273,404.50,4.614
274,404.58,4.614
275,404.66,4.614
276,404.74,4.614
277,404.83,4.614
278,404.91,4.614
279,405.00,4.614
280,405.08,4.614
281,405.17,4.614
282,405.25,4.614
283,405.34,4.614
284,405.42,4.614
285,405.50,4.614
286,405.58,4.614
287,405.66,4.614
288,405.75,4.614
289,405.84,4.614
290,405.92,4.614
291,406.01,4.614
292,406.09,4.614
293,406.18,4.614
294,406.25,4.614
295,406.33,4.614
296,406.41,4.614
297,406.50,4.614
298,406.59,4.613
299,406.67,4.613
300,406.76,4.613
301,406.84,4.613
302,406.92,4.613
303,407.00,4.613
304,407.09,4.613
305,407.17,4.613
306,407.26,4.613
307,407.34,4.613
308,407.43,4.613
309,407.51,4.613
310,407.59,4.613
311,407.67,4.613
312,407.76,4.613
313,407.84,4.613
314,407.92,4.613
315,408.01,4.613
316,408.09,4.613
317,408.17,4.613
318,408.26,4.613
319,408.34,4.613
320,408.43,4.613
321,408.51,4.613
322,408.60,4.613
323,408.68,4.613
324,408.76,4.613
325,408.85,4.613
326,408.93,4.613
327,409.01,4.613
328,409.10,4.613
329,409.18,4.613
330,409.26,4.613
331,409.35,4.613
332,409.43,4.613
333,409.51,4.613
334,409.59,4.613
335,409.68,4.613
336,409.76,4.613
337,409.85,4.613
338,409.93,4.613
339,410.02,4.613
340,410.10,4.613
341,410.18,4.613
342,410.26,4.613
343,410.35,4.613
344,410.43,4.613
345,410.51,4.613
346,410.60,4.612
347,410.69,4.612
348,410.77,4.612
349,410.85,4.612
350,410.93,4.612
351,411.01,4.612
352,411.10,4.612
353,411.19,4.612
354,411.27,4.612
355,411.35,4.612
356,411.44,4.612
357,411.52,4.612
358,411.60,4.612
359,411.69,4.612
360,411.77,4.612
361,411.85,4.612
362,411.94,4.612
363,412.02,4.612
364,412.10,4.612
365,412.19,4.612
366,412.27,4.612
367,412.35,4.612
368,412.44,4.612
369,412.52,4.612
370,412.60,4.612
371,412.69,4.612
372,412.78,4.612
373,412.86,4.612
374,412.94,4.612
375,413.02,4.612
376,413.11,4.612
377,413.19,4.612
378,413.28,4.612
379,413.36,4.612
380,413.44,4.612
381,413.52,4.612
382,413.61,4.612
383,413.69,4.612
384,413.78,4.612
385,413.86,4.612
386,413.94,4.612
387,414.03,4.612
388,414.11,4.612
389,414.19,4.612
390,414.28,4.612
391,414.36,4.611
392,414.45,4.611
393,414.53,4.611
394,414.61,4.611
395,414.70,4.611
396,414.78,4.611
397,414.87,4.611
398,414.95,4.611
399,415.03,4.611
400,415.11,4.611
401,415.20,4.611
402,415.29,4.611
403,415.37,4.611
404,415.45,4.611
405,415.53,4.611
406,415.61,4.611
407,415.70,4.611
408,415.79,4.611
409,415.87,4.611
410,415.95,4.611
411,416.03,4.611
412,416.12,4.611
413,416.20,4.611
414,416.29,4.611
415,416.37,4.611
416,416.45,4.611
417,416.53,4.611
418,416.62,4.611
419,416.70,4.611
420,416.79,4.611
421,416.88,4.611
422,416.96,4.611
423,417.04,4.611
424,417.12,4.611
425,417.20,4.610
426,417.29,4.610
427,417.37,4.610
428,417.46,4.610
429,417.54,4.610
430,417.62,4.610
431,417.71,4.610
432,417.79,4.610
433,417.87,4.610
434,417.95,4.610
435,418.04,4.610
436,418.13,4.610
437,418.21,4.610
438,418.30,4.610
439,418.38,4.610
440,418.46,4.610
441,418.54,4.610
442,418.63,4.610
443,418.71,4.610
444,418.80,4.610
445,418.88,4.610
446,418.96,4.610
447,419.04,4.610
448,419.12,4.610
449,419.21,4.610
450,419.30,4.610
451,419.39,4.610
452,419.46,4.610
453,419.54,4.610
454,419.63,4.610
455,419.72,4.609
456,419.80,4.609
457,419.88,4.609
458,419.97,4.609
459,420.05,4.609
460,420.13,4.609
461,420.21,4.609
462,420.30,4.609
463,420.38,4.609
464,420.47,4.609
465,420.55,4.609
466,420.64,4.609
467,420.72,4.609
468,420.80,4.609
469,420.88,4.609
470,420.97,4.609
471,421.05,4.609
472,421.14,4.609
473,421.22,4.609
474,421.30,4.609
475,421.38,4.609
476,421.47,4.609
477,421.55,4.609
478,421.64,4.609
479,421.72,4.609
480,421.81,4.609
481,421.90,4.609
482,421.97,4.609
483,422.05,4.608
484,422.13,4.608
485,422.22,4.608
486,422.30,4.608
487,422.39,4.608
488,422.48,4.608
489,422.56,4.608
490,422.64,4.608
491,422.72,4.608
492,422.81,4.608
493,422.89,4.608
494,422.98,4.608
495,423.06,4.608
496,423.15,4.608
497,423.23,4.608
498,423.31,4.608
499,423.39,4.608
500,423.48,4.608
501,423.56,4.608
502,423.65,4.608
503,423.73,4.608
504,423.81,4.608
505,423.89,4.608
506,423.98,4.607
507,424.06,4.607
508,424.15,4.607
509,424.23,4.607
510,424.31,4.607
511,424.40,4.607
512,424.48,4.607
513,424.56,4.607
514,424.65,4.607
515,424.73,4.607
516,424.81,4.607
517,424.90,4.607
518,424.98,4.607
519,425.07,4.607
520,425.15,4.607
521,425.24,4.607
522,425.32,4.607
523,425.40,4.607
524,425.48,4.607
525,425.56,4.607
526,425.64,4.607
527,425.73,4.607
528,425.82,4.607
529,425.91,4.606
530,425.99,4.606
531,426.08,4.606
532,426.15,4.606
533,426.23,4.606
534,426.32,4.606
535,426.41,4.606
536,426.49,4.606
537,426.58,4.606
538,426.66,4.606
539,426.74,4.606
540,426.82,4.606
541,426.90,4.606
542,426.98,4.606
543,427.07,4.606
544,427.16,4.606
545,427.25,4.606
546,427.33,4.606
547,427.41,4.605
548,427.49,4.605
549,427.57,4.605
550,427.65,4.605
551,427.74,4.605
552,427.82,4.605
553,427.90,4.605
554,427.99,4.605
555,428.08,4.605
556,428.16,4.605
557,428.24,4.605
558,428.32,4.605
559,428.41,4.605
560,428.49,4.605
561,428.58,4.605
562,428.66,4.605
563,428.75,4.605
564,428.84,4.605
565,428.92,4.605
566,429.00,4.605
567,429.08,4.605
568,429.16,4.604
569,429.24,4.604
570,429.32,4.604
571,429.41,4.604
572,429.50,4.604
573,429.58,4.604
574,429.67,4.604
575,429.75,4.604
576,429.82,4.604
577,429.91,4.604
578,429.99,4.604
579,430.08,4.604
580,430.16,4.604
581,430.25,4.604
582,430.33,4.604
583,430.41,4.604
584,430.49,4.604
585,430.57,4.604
586,430.66,4.603
587,430.75,4.603
588,430.83,4.603
589,430.92,4.603
590,431.00,4.603
591,431.08,4.603
592,431.16,4.603
593,431.24,4.603
594,431.33,4.603
595,431.42,4.603
596,431.50,4.603
597,431.58,4.603
598,431.66,4.603
599,431.75,4.603
600,431.83,4.603
601,431.92,4.603
602,432.00,4.603
603,432.08,4.603
604,432.17,4.603
605,432.25,4.602
606,432.34,4.602
607,432.42,4.602
608,432.50,4.602
609,432.58,4.602
610,432.66,4.602
611,432.75,4.602
612,432.84,4.602
613,432.92,4.602
614,433.00,4.602
615,433.09,4.602
616,433.17,4.602
617,433.26,4.602
618,433.34,4.602
619,433.42,4.602
620,433.50,4.601
621,433.58,4.601
622,433.66,4.601
623,433.76,4.601
624,433.84,4.601
625,433.92,4.601
626,434.00,4.601
627,434.09,4.601
628,434.17,4.601
629,434.26,4.601
630,434.34,4.601
631,434.42,4.601
632,434.50,4.601
633,434.59,4.601
634,434.67,4.600
635,434.76,4.600
636,434.84,4.600
637,434.92,4.600
638,435.01,4.600
639,435.09,4.600
640,435.18,4.600
641,435.26,4.600
642,435.34,4.600
643,435.42,4.600
644,435.50,4.600
645,435.58,4.600
646,435.67,4.600
647,435.76,4.600
648,435.85,4.600
649,435.93,4.599
650,436.00,4.599
651,436.08,4.599
652,436.17,4.599
653,436.26,4.599
654,436.35,4.599
655,436.43,4.599
656,436.51,4.599
657,436.59,4.599
658,436.67,4.599
659,436.76,4.599
660,436.84,4.599
661,436.93,4.599
662,437.02,4.599
663,437.09,4.598
664,437.18,4.598
665,437.26,4.598
666,437.34,4.598
667,437.43,4.598
668,437.51,4.598
669,437.60,4.598
670,437.68,4.598
671,437.76,4.598
672,437.85,4.598
673,437.93,4.598
674,438.01,4.598
675,438.09,4.598
676,438.17,4.597
677,438.26,4.597
678,438.35,4.597
679,438.44,4.597
680,438.52,4.597
681,438.60,4.597
682,438.68,4.597
683,438.76,4.597
684,438.84,4.597
685,438.93,4.597
686,439.02,4.597
687,439.10,4.597
688,439.19,4.596
689,439.27,4.596
690,439.35,4.596
691,439.42,4.596
692,439.51,4.596
693,439.60,4.596
694,439.68,4.596
695,439.77,4.596
696,439.85,4.596
697,439.93,4.596
698,440.01,4.596
699,440.09,4.596
700,440.18,4.596
701,440.27,4.595
702,440.36,4.595
703,440.44,4.595
704,440.52,4.595
705,440.60,4.595
706,440.68,4.595
707,440.76,4.595
708,440.85,4.595
709,440.94,4.595
710,441.02,4.595
711,441.10,4.595
712,441.18,4.595
713,441.27,4.594
714,441.35,4.594
715,441.43,4.594
716,441.52,4.594
717,441.60,4.594
718,441.68,4.594
719,441.77,4.594
720,441.85,4.594
721,441.94,4.594
722,442.02,4.594
723,442.10,4.594
724,442.19,4.593
725,442.27,4.593
726,442.35,4.593
727,442.44,4.593
728,442.52,4.593
729,442.61,4.593
730,442.69,4.593
731,442.78,4.593
732,442.85,4.593
733,442.93,4.593
734,443.02,4.593
735,443.10,4.593
736,443.19,4.592
737,443.27,4.592
738,443.36,4.592
739,443.44,4.592
740,443.52,4.592
741,443.61,4.592
742,443.69,4.592
743,443.77,4.592
744,443.85,4.592
745,443.94,4.592
746,444.02,4.592
747,444.11,4.591
748,444.19,4.591
749,444.28,4.591
750,444.36,4.591
751,444.44,4.591
752,444.52,4.591
753,444.61,4.591
754,444.70,4.591
755,444.78,4.591
756,444.86,4.591
757,444.94,4.590
758,445.02,4.590
759,445.10,4.590
760,445.19,4.590
761,445.28,4.590
762,445.37,4.590
763,445.45,4.590
764,445.53,4.590
765,445.60,4.590
766,445.69,4.590
767,445.77,4.589
768,445.86,4.589
769,445.95,4.589
770,446.03,4.589
771,446.12,4.589
772,446.20,4.589
773,446.28,4.589
774,446.36,4.589
775,446.44,4.589
776,446.53,4.589
777,446.61,4.588
778,446.70,4.588
779,446.78,4.588
780,446.87,4.588
781,446.95,4.588
782,447.03,4.588
783,447.11,4.588
784,447.19,4.588
785,447.27,4.588
786,447.36,4.588
787,447.45,4.587
788,447.54,4.587
789,447.61,4.587
790,447.70,4.587
791,447.78,4.587
792,447.87,4.587
793,447.95,4.587
794,448.03,4.587
795,448.12,4.587
796,448.20,4.587
797,448.28,4.586
798,448.37,4.586
799,448.45,4.586
800,448.53,4.586
801,448.61,4.586
802,448.70,4.586
803,448.78,4.586
804,448.87,4.586
805,448.96,4.586
806,449.03,4.586
807,449.12,4.586
808,449.20,4.585
809,449.28,4.585
810,449.37,4.585
811,449.46,4.585
812,449.54,4.585
813,449.62,4.585
814,449.70,4.585
815,449.78,4.585
816,449.86,4.585
817,449.95,4.584
818,450.03,4.584
819,450.12,4.584
820,450.20,4.584
821,450.29,4.584
822,450.37,4.584
823,450.46,4.584
824,450.54,4.584
825,450.62,4.584
826,450.71,4.583
827,450.79,4.583
828,450.87,4.583
829,450.95,4.583
830,451.04,4.583
831,451.12,4.583
832,451.20,4.583
833,451.28,4.583
834,451.37,4.583
835,451.45,4.582
836,451.54,4.582
837,451.63,4.582
838,451.71,4.582
839,451.79,4.582
840,451.88,4.582
841,451.96,4.582
842,452.04,4.582
843,452.12,4.582
844,452.21,4.581
845,452.29,4.581
846,452.38,4.581
847,452.46,4.581
848,452.55,4.581
849,452.63,4.581
850,452.71,4.581
851,452.79,4.581
852,452.87,4.580
853,452.96,4.580
854,453.04,4.580
855,453.13,4.580
856,453.21,4.580
857,453.29,4.580
858,453.37,4.580
859,453.46,4.580
860,453.55,4.580
861,453.63,4.579
862,453.71,4.579
863,453.79,4.579
864,453.87,4.579
865,453.96,4.579
866,454.05,4.579
867,454.13,4.579
868,454.21,4.579
869,454.29,4.578
870,454.38,4.578
871,454.46,4.578
872,454.55,4.578
873,454.63,4.578
874,454.72,4.578
875,454.79,4.578
876,454.88,4.578
877,454.96,4.577
878,455.05,4.577
879,455.13,4.577
880,455.22,4.577
881,455.30,4.577
882,455.38,4.577
883,455.46,4.577
884,455.54,4.577
885,455.62,4.576
886,455.71,4.576
887,455.80,4.576
888,455.89,4.576
889,455.97,4.576
890,456.05,4.576
891,456.13,4.576
892,456.21,4.576
893,456.29,4.575
894,456.38,4.575
895,456.47,4.575
896,456.56,4.575
897,456.64,4.575
898,456.71,4.575
899,456.80,4.575
900,456.88,4.574
901,456.96,4.574
902,457.04,4.574
903,457.14,4.574
904,457.22,4.574
905,457.31,4.574
906,457.39,4.574
907,457.46,4.574
908,457.55,4.573
909,457.62,4.573
910,457.71,4.573
911,457.80,4.573
912,457.89,4.573
913,457.97,4.573
914,458.05,4.573
915,458.13,4.572
916,458.21,4.572
917,458.30,4.572
918,458.39,4.572
919,458.47,4.572
920,458.55,4.572
921,458.63,4.572
922,458.72,4.572
923,458.80,4.571
924,458.88,4.571
925,458.97,4.571
926,459.05,4.571
927,459.14,4.571
928,459.22,4.571
929,459.30,4.571
930,459.39,4.570
931,459.47,4.570
932,459.55,4.570
933,459.63,4.570
934,459.72,4.570
935,459.81,4.570
936,459.89,4.570
937,459.97,4.570
938,460.06,4.569
939,460.14,4.569
940,460.22,4.569
941,460.31,4.569
942,460.39,4.569
943,460.48,4.569
944,460.56,4.569
945,460.64,4.568
946,460.72,4.568
947,460.81,4.568
948,460.89,4.568
949,460.97,4.568
950,461.05,4.568
951,461.14,4.568
952,461.23,4.567
953,461.31,4.567
954,461.40,4.567
955,461.48,4.567
956,461.56,4.567
957,461.63,4.567
958,461.72,4.567
959,461.81,4.566
960,461.89,4.566
961,461.98,4.566
962,462.06,4.566
963,462.15,4.566
964,462.23,4.566
965,462.31,4.566
966,462.39,4.565
967,462.48,4.565
968,462.56,4.565
969,462.65,4.565
970,462.72,4.565
971,462.81,4.565
972,462.89,4.565
973,462.98,4.564
974,463.07,4.564
975,463.15,4.564
976,463.23,4.564
977,463.31,4.564
978,463.39,4.564
979,463.48,4.563
980,463.56,4.563
981,463.65,4.563
982,463.73,4.563
983,463.81,4.563
984,463.89,4.563
985,463.98,4.563
986,464.06,4.562
987,464.15,4.562
988,464.23,4.562
989,464.31,4.562
990,464.39,4.562
991,464.48,4.562
992,464.56,4.561
993,464.65,4.561
994,464.73,4.561
995,464.82,4.561
996,464.90,4.561
997,464.98,4.561
998,465.07,4.561
999,465.15,4.560
1000,465.24,4.560
1001,465.32,4.560
1002,465.40,4.560
1003,465.48,4.560
1004,465.56,4.560
1005,465.65,4.559
1006,465.73,4.559
1007,465.82,4.559
1008,465.90,4.559
1009,465.99,4.559
1010,466.07,4.559
1011,466.15,4.558
1012,466.23,4.558
1013,466.32,4.558
1014,466.40,4.558
1015,466.48,4.558
1016,466.57,4.558
1017,466.65,4.557
1018,466.74,4.557
1019,466.82,4.557
1020,466.90,4.557
1021,466.99,4.557
1022,467.07,4.557
1023,467.16,4.556
1024,467.23,4.556
1025,467.32,4.556
1026,467.40,4.556
1027,467.49,4.556
1028,467.57,4.556
1029,467.65,4.555
1030,467.74,4.555
1031,467.82,4.555
1032,467.90,4.555
1033,467.99,4.555
1034,468.07,4.555
1035,468.15,4.554
1036,468.24,4.554
1037,468.32,4.554
1038,468.41,4.554
1039,468.49,4.554
1040,468.57,4.554
1041,468.66,4.554
1042,468.74,4.553
1043,468.82,4.553
1044,468.91,4.553
1045,468.99,4.553
1046,469.07,4.553
1047,469.16,4.553
1048,469.24,4.552
1049,469.33,4.552
1050,469.41,4.552
1051,469.49,4.552
1052,469.57,4.552
1053,469.65,4.551
1054,469.74,4.551
1055,469.83,4.551
1056,469.91,4.551
1057,470.00,4.551
1058,470.08,4.550
1059,470.16,4.550
1060,470.25,4.550
1061,470.33,4.550
1062,470.41,4.550
1063,470.49,4.550
1064,470.58,4.549
1065,470.66,4.549
1066,470.75,4.549
1067,470.82,4.549
1068,470.91,4.549
1069,470.99,4.548
1070,471.08,4.548
1071,471.16,4.548
1072,471.24,4.548
1073,471.33,4.548
1074,471.41,4.547
1075,471.49,4.547
1076,471.58,4.547
1077,471.66,4.547
1078,471.74,4.547
1079,471.83,4.547
1080,471.91,4.546
1081,472.00,4.546
1082,472.08,4.546
1083,472.16,4.546
1084,472.25,4.546
1085,472.33,4.546
1086,472.41,4.545
1087,472.50,4.545
1088,472.58,4.545
1089,472.66,4.545
1090,472.75,4.545
1091,472.83,4.544
1092,472.91,4.544
1093,473.00,4.544
1094,473.08,4.544
1095,473.16,4.544
1096,473.24,4.543
1097,473.33,4.543
1098,473.42,4.543
1099,473.50,4.543
1100,473.59,4.543
1101,473.67,4.543
1102,473.74,4.542
1103,473.83,4.542
1104,473.92,4.542
1105,474.00,4.542
1106,474.09,4.542
1107,474.17,4.541
1108,474.26,4.541
1109,474.34,4.541
1110,474.42,4.541
1111,474.50,4.541
1112,474.58,4.540
1113,474.67,4.540
1114,474.75,4.540
1115,474.84,4.540
1116,474.92,4.540
1117,475.00,4.539
1118,475.09,4.539
1119,475.17,4.539
1120,475.25,4.539
1121,475.34,4.539
1122,475.42,4.538
1123,475.50,4.538
1124,475.58,4.538
1125,475.67,4.538
1126,475.75,4.538
1127,475.84,4.537
1128,475.93,4.537
1129,476.01,4.537
1130,476.08,4.537
1131,476.17,4.536
1132,476.25,4.536
1133,476.34,4.536
1134,476.43,4.536
1135,476.51,4.536
1136,476.59,4.535
1137,476.68,4.535
1138,476.76,4.535
1139,476.84,4.535
1140,476.92,4.535
1141,477.00,4.534
1142,477.09,4.534
1143,477.17,4.534
1144,477.26,4.534
1145,477.34,4.534
1146,477.42,4.533
1147,477.50,4.533
1148,477.59,4.533
1149,477.67,4.533
1150,477.76,4.533
1151,477.84,4.532
1152,477.92,4.532
1153,478.01,4.532
1154,478.09,4.532
1155,478.18,4.532
1156,478.25,4.531
1157,478.35,4.531
1158,478.42,4.531
1159,478.50,4.531
1160,478.59,4.530
1161,478.68,4.530
1162,478.76,4.530
1163,478.84,4.530
1164,478.93,4.529
1165,479.01,4.529
1166,479.09,4.529
1167,479.18,4.529
1168,479.26,4.529
1169,479.35,4.528
1170,479.43,4.528
1171,479.51,4.528
1172,479.60,4.528
1173,479.68,4.527
1174,479.76,4.527
1175,479.85,4.527
1176,479.93,4.527
1177,480.01,4.527
1178,480.09,4.526
1179,480.18,4.526
1180,480.26,4.526
1181,480.35,4.526
1182,480.43,4.525
1183,480.51,4.525
1184,480.60,4.525
1185,480.68,4.525
1186,480.76,4.525
1187,480.85,4.524
1188,480.93,4.524
1189,481.01,4.524
1190,481.10,4.524
1191,481.18,4.523
1192,481.27,4.523
1193,481.35,4.523
1194,481.43,4.523
1195,481.52,4.522
1196,481.60,4.522
1197,481.68,4.522
1198,481.76,4.522
1199,481.85,4.521
1200,481.93,4.521
1201,482.02,4.521
1202,482.10,4.521
1203,482.18,4.520
1204,482.26,4.520
1205,482.35,4.520
1206,482.43,4.520
1207,482.52,4.519
1208,482.60,4.519
1209,482.68,4.519
1210,482.77,4.519
1211,482.85,4.519
1212,482.93,4.518
1213,483.02,4.518
1214,483.11,4.518
1215,483.19,4.518
1216,483.27,4.517
1217,483.35,4.517
1218,483.43,4.517
1219,483.51,4.517
1220,483.60,4.516
1221,483.69,4.516
1222,483.78,4.516
1223,483.86,4.516
1224,483.93,4.515
1225,484.01,4.515
1226,484.10,4.515
1227,484.19,4.515
1228,484.27,4.514
1229,484.35,4.514
1230,484.44,4.514
1231,484.52,4.514
1232,484.61,4.513
1233,484.69,4.513
1234,484.77,4.513
1235,484.85,4.512
1236,484.94,4.512
1237,485.02,4.512
1238,485.10,4.512
1239,485.19,4.511
1240,485.27,4.511
1241,485.36,4.511
1242,485.44,4.511
1243,485.52,4.510
1244,485.60,4.510
1245,485.69,4.510
1246,485.78,4.510
1247,485.86,4.509
1248,485.94,4.509
1249,486.02,4.509
1250,486.10,4.509
1251,486.19,4.508
1252,486.28,4.508
1253,486.36,4.508
1254,486.45,4.508
1255,486.53,4.507
1256,486.61,4.507
1257,486.69,4.507
1258,486.77,4.507
1259,486.85,4.506
1260,486.94,4.506
1261,487.03,4.506
1262,487.11,4.505
1263,487.20,4.505
1264,487.28,4.505
1265,487.35,4.505
1266,487.44,4.504
1267,487.53,4.504
1268,487.61,4.504
1269,487.69,4.504
1270,487.78,4.503
1271,487.86,4.503
1272,487.94,4.503
1273,488.03,4.502
1274,488.11,4.502
1275,488.19,4.502
1276,488.28,4.502
1277,488.36,4.501
1278,488.45,4.501
1279,488.53,4.501
1280,488.61,4.500
1281,488.70,4.500
1282,488.78,4.500
1283,488.86,4.500
1284,488.95,4.499
1285,489.03,4.499
1286,489.11,4.499
1287,489.20,4.499
1288,489.28,4.498
1289,489.37,4.498
1290,489.44,4.498
1291,489.53,4.497
1292,489.62,4.497
1293,489.70,4.497
1294,489.78,4.497
1295,489.87,4.496
1296,489.95,4.496
1297,490.03,4.496
1298,490.12,4.495
1299,490.20,4.495
1300,490.28,4.495
1301,490.36,4.494
1302,490.44,4.494
1303,490.53,4.494
1304,490.62,4.494
1305,490.70,4.493
1306,490.79,4.493
1307,490.87,4.493
1308,490.95,4.492
1309,491.03,4.492
1310,491.12,4.492
1311,491.20,4.492
1312,491.29,4.491
1313,491.37,4.491
1314,491.45,4.491
1315,491.54,4.490
1316,491.62,4.490
1317,491.70,4.490
1318,491.78,4.489
1319,491.87,4.489
1320,491.95,4.489
1321,492.04,4.489
1322,492.12,4.488
1323,492.20,4.488
1324,492.28,4.488
1325,492.37,4.487
1326,492.45,4.487
1327,492.54,4.487
1328,492.62,4.486
1329,492.70,4.486
1330,492.78,4.486
1331,492.87,4.485
1332,492.96,4.485
1333,493.04,4.485
1334,493.13,4.484
1335,493.21,4.484
1336,493.28,4.484
1337,493.37,4.484
1338,493.45,4.483
1339,493.54,4.483
1340,493.62,4.483
1341,493.70,4.482
1342,493.79,4.482
1343,493.87,4.482
1344,493.96,4.481
1345,494.04,4.481
1346,494.12,4.481
1347,494.20,4.480
1348,494.29,4.480
1349,494.37,4.480
1350,494.46,4.479
1351,494.54,4.479
1352,494.62,4.479
1353,494.71,4.478
1354,494.79,4.478
1355,494.88,4.478
1356,494.96,4.477
1357,495.04,4.477
1358,495.12,4.477
1359,495.20,4.476
1360,495.29,4.476
1361,495.37,4.476
1362,495.46,4.475
1363,495.54,4.475
1364,495.63,4.475
1365,495.71,4.474
1366,495.79,4.474
1367,495.88,4.474
1368,495.96,4.473
1369,496.04,4.473
1370,496.13,4.473
1371,496.21,4.472
1372,496.30,4.472
1373,496.38,4.472
1374,496.46,4.471
1375,496.55,4.471
1376,496.63,4.471
1377,496.71,4.470
1378,496.79,4.470
1379,496.88,4.470
1380,496.96,4.469
1381,497.04,4.469
1382,497.13,4.469
1383,497.22,4.468
1384,497.30,4.468
1385,497.38,4.468
1386,497.46,4.467
1387,497.54,4.467
1388,497.63,4.466
1389,497.72,4.466
1390,497.80,4.466
1391,497.88,4.465
1392,497.97,4.465
1393,498.04,4.465
1394,498.13,4.464
1395,498.21,4.464
1396,498.30,4.464
1397,498.38,4.463
1398,498.46,4.463
1399,498.55,4.462
1400,498.63,4.462
1401,498.71,4.462
1402,498.80,4.461
1403,498.88,4.461
1404,498.96,4.461
1405,499.04,4.460
1406,499.13,4.460
1407,499.22,4.460
1408,499.30,4.459
1409,499.38,4.459
1410,499.47,4.458
1411,499.55,4.458
1412,499.63,4.458
1413,499.72,4.457
1414,499.80,4.457
1415,499.88,4.457
1416,499.96,4.456
1417,500.05,4.456
1418,500.14,4.455
1419,500.22,4.455
1420,500.31,4.455
1421,500.38,4.454
1422,500.47,4.454
1423,500.55,4.454
1424,500.64,4.453
1425,500.72,4.453
1426,500.80,4.452
1427,500.88,4.452
1428,500.97,4.452
1429,501.06,4.451
1430,501.14,4.451
1431,501.22,4.450
1432,501.30,4.450
1433,501.38,4.450
1434,501.47,4.449
1435,501.55,4.449
1436,501.64,4.448
1437,501.72,4.448
1438,501.81,4.448
1439,501.89,4.447
1440,501.97,4.447
1441,502.05,4.447
1442,502.14,4.446
1443,502.22,4.446
1444,502.30,4.445
1445,502.39,4.445
1446,502.48,4.445
1447,502.56,4.444
1448,502.64,4.444
1449,502.72,4.443
1450,502.81,4.443
1451,502.89,4.442
1452,502.98,4.442
1453,503.06,4.442
1454,503.14,4.441
1455,503.22,4.441
1456,503.30,4.440
1457,503.39,4.440
1458,503.48,4.440
1459,503.56,4.439
1460,503.65,4.439
1461,503.73,4.438
1462,503.81,4.438
1463,503.89,4.437
1464,503.97,4.437
1465,504.06,4.437
1466,504.15,4.436
1467,504.23,4.436
1468,504.31,4.435
1469,504.39,4.435
1470,504.48,4.434
1471,504.56,4.434
1472,504.65,4.434
1473,504.72,4.433
1474,504.81,4.433
1475,504.89,4.432
1476,504.98,4.432
1477,505.07,4.431
1478,505.15,4.431
1479,505.23,4.431
1480,505.31,4.430
1481,505.39,4.430
1482,505.47,4.429
1483,505.56,4.429
1484,505.65,4.428
1485,505.73,4.428
1486,505.81,4.427
1487,505.90,4.427
1488,505.98,4.427
1489,506.07,4.426
1490,506.15,4.426
1491,506.23,4.425
1492,506.31,4.425
1493,506.39,4.424
1494,506.48,4.424
1495,506.57,4.423
1496,506.65,4.423
1497,506.73,4.422
1498,506.82,4.422
1499,506.90,4.422
1500,506.98,4.421
1501,507.06,4.421
1502,507.14,4.420
1503,507.23,4.420
1504,507.32,4.419
1505,507.40,4.419
1506,507.48,4.418
1507,507.57,4.418
1508,507.65,4.417
1509,507.74,4.417
1510,507.82,4.416
1511,507.90,4.416
1512,507.98,4.416
1513,508.06,4.415
1514,508.15,4.415
1515,508.24,4.414
1516,508.32,4.414
1517,508.41,4.413
1518,508.49,4.413
1519,508.57,4.412
1520,508.65,4.412
1521,508.73,4.411
1522,508.82,4.411
1523,508.90,4.410
1524,508.98,4.410
1525,509.07,4.409
1526,509.15,4.409
1527,509.24,4.408
1528,509.32,4.408
1529,509.41,4.407
1530,509.49,4.407
1531,509.57,4.406
1532,509.65,4.406
1533,509.73,4.405
1534,509.82,4.405
1535,509.91,4.404
1536,509.99,4.404
1537,510.07,4.403
1538,510.16,4.403
1539,510.24,4.402
1540,510.32,4.402
1541,510.41,4.401
1542,510.49,4.400
1543,510.57,4.400
1544,510.66,4.399
1545,510.74,4.399
1546,510.82,4.398
1547,510.90,4.398
1548,510.99,4.397
1549,511.07,4.397
1550,511.15,4.396
1551,511.24,4.396
1552,511.33,4.395
1553,511.41,4.395
1554,511.49,4.394
1555,511.57,4.394
1556,511.66,4.393
1557,511.74,4.393
1558,511.82,4.392
1559,511.91,4.392
1560,511.99,4.391
1561,512.08,4.391
1562,512.16,4.390
1563,512.24,4.389
1564,512.32,4.389
1565,512.41,4.388
1566,512.49,4.388
1567,512.58,4.387
1568,512.66,4.387
1569,512.74,4.386
1570,512.83,4.386
1571,512.91,4.385
1572,512.99,4.385
1573,513.08,4.384
1574,513.16,4.383
1575,513.24,4.383
1576,513.32,4.382
1577,513.41,4.382
1578,513.50,4.381
1579,513.58,4.381
1580,513.67,4.380
1581,513.75,4.380
1582,513.82,4.379
1583,513.91,4.378
1584,513.99,4.378
1585,514.08,4.377
1586,514.17,4.377
1587,514.25,4.376
1588,514.32,4.375
1589,514.41,4.375
1590,514.49,4.374
1591,514.58,4.374
1592,514.67,4.373
1593,514.75,4.373
1594,514.83,4.372
1595,514.91,4.371
1596,515.00,4.371
1597,515.08,4.370
1598,515.17,4.370
1599,515.25,4.369
1600,515.33,4.369
1601,515.41,4.368
1602,515.50,4.367
1603,515.59,4.367
1604,515.67,4.366
1605,515.75,4.366
1606,515.83,4.365
1607,515.92,4.364
1608,516.00,4.364
1609,516.08,4.363
1610,516.16,4.363
1611,516.25,4.362
1612,516.33,4.361
1613,516.41,4.361
1614,516.50,4.360
1615,516.59,4.360
1616,516.67,4.359
1617,516.75,4.358
1618,516.83,4.358
1619,516.92,4.357
1620,517.01,4.357
1621,517.09,4.356
1622,517.17,4.355
1623,517.25,4.355
1624,517.33,4.354
1625,517.42,4.353
1626,517.50,4.353
1627,517.58,4.352
1628,517.67,4.351
1629,517.75,4.351
1630,517.84,4.350
1631,517.92,4.350
1632,518.00,4.349
1633,518.09,4.348
1634,518.16,4.348
1635,518.25,4.347
1636,518.34,4.346
1637,518.42,4.346
1638,518.51,4.345
1639,518.59,4.344
1640,518.67,4.344
1641,518.75,4.343
1642,518.84,4.342
1643,518.93,4.342
1644,519.01,4.341
1645,519.09,4.340
1646,519.17,4.340
1647,519.25,4.339
1648,519.33,4.339
1649,519.42,4.338
1650,519.51,4.337
1651,519.59,4.337
1652,519.67,4.336
1653,519.75,4.335
1654,519.84,4.335
1655,519.93,4.334
1656,520.01,4.333
1657,520.09,4.333
1658,520.17,4.332
1659,520.26,4.331
1660,520.34,4.331
1661,520.43,4.330
1662,520.51,4.329
1663,520.59,4.329
1664,520.67,4.328
1665,520.76,4.327
1666,520.84,4.327
1667,520.93,4.326
1668,521.01,4.325
1669,521.09,4.325
1670,521.18,4.324
1671,521.26,4.323
1672,521.34,4.323
1673,521.43,4.322
1674,521.51,4.321
1675,521.59,4.321
1676,521.68,4.320
1677,521.76,4.319
1678,521.84,4.318
1679,521.93,4.318
1680,522.01,4.317
1681,522.10,4.316
1682,522.18,4.316
1683,522.27,4.315
1684,522.34,4.314
1685,522.42,4.313
1686,522.51,4.313
1687,522.59,4.312
1688,522.68,4.311
1689,522.76,4.310
1690,522.85,4.310
1691,522.93,4.309
1692,523.01,4.308
1693,523.09,4.307
1694,523.18,4.307
1695,523.26,4.306
1696,523.35,4.305
1697,523.43,4.304
1698,523.51,4.304
1699,523.59,4.303
1700,523.68,4.302
1701,523.77,4.302
1702,523.85,4.301
1703,523.93,4.300
1704,524.01,4.299
1705,524.10,4.299
1706,524.18,4.298
1707,524.27,4.297
1708,524.35,4.296
1709,524.43,4.296
1710,524.52,4.295
1711,524.60,4.294
1712,524.68,4.293
1713,524.76,4.293
1714,524.85,4.292
1715,524.93,4.291
1716,525.02,4.290
1717,525.10,4.290
1718,525.18,4.289
1719,525.27,4.288
1720,525.35,4.287
1721,525.44,4.287
1722,525.52,4.286
1723,525.60,4.285
1724,525.68,4.284
1725,525.76,4.284
1726,525.85,4.283
1727,525.94,4.282
1728,526.02,4.281
1729,526.10,4.280
1730,526.18,4.280
1731,526.27,4.279
1732,526.36,4.278
1733,526.44,4.277
1734,526.52,4.277
1735,526.60,4.276
1736,526.69,4.275
1737,526.77,4.274
1738,526.85,4.273
1739,526.94,4.273
1740,527.02,4.272
1741,527.11,4.271
1742,527.19,4.270
1743,527.27,4.269
1744,527.35,4.269
1745,527.43,4.268
1746,527.52,4.267
1747,527.60,4.266
1748,527.69,4.266
1749,527.77,4.265
1750,527.85,4.264
1751,527.94,4.263
1752,528.02,4.262
1753,528.10,4.262
1754,528.18,4.261
1755,528.28,4.260
1756,528.36,4.259
1757,528.44,4.258
1758,528.53,4.257
1759,528.61,4.257
1760,528.69,4.256
1761,528.77,4.255
1762,528.86,4.254
1763,528.94,4.253
1764,529.03,4.253
1765,529.11,4.252
1766,529.19,4.251
1767,529.27,4.250
1768,529.36,4.249
1769,529.45,4.248
1770,529.53,4.248
1771,529.61,4.247
1772,529.69,4.246
1773,529.77,4.245
1774,529.86,4.244
1775,529.95,4.243
1776,530.03,4.243
1777,530.11,4.242
1778,530.19,4.241
1779,530.27,4.240
1780,530.36,4.239
1781,530.44,4.238
1782,530.53,4.238
1783,530.62,4.237
1784,530.69,4.236
1785,530.77,4.235
1786,530.86,4.234
1787,530.95,4.233
1788,531.03,4.232
1789,531.11,4.232
1790,531.19,4.231
1791,531.28,4.230
1792,531.36,4.229
1793,531.45,4.228
1794,531.53,4.227
1795,531.61,4.226
1796,531.70,4.225
1797,531.78,4.225
1798,531.86,4.224
1799,531.95,4.223
1800,532.03,4.222
1801,532.12,4.221
1802,532.20,4.220
1803,532.28,4.219
1804,532.37,4.218
1805,532.45,4.218
1806,532.53,4.217
1807,532.61,4.216
1808,532.69,4.215
1809,532.78,4.214
1810,532.87,4.213
1811,532.95,4.212
1812,533.03,4.212
1813,533.11,4.211
1814,533.20,4.210
1815,533.29,4.209
1816,533.37,4.208
1817,533.45,4.207
1818,533.53,4.206
1819,533.61,4.205
1820,533.70,4.204
1821,533.78,4.204
1822,533.87,4.203
1823,533.95,4.202
1824,534.04,4.201
1825,534.11,4.200
1826,534.20,4.199
1827,534.29,4.198
1828,534.37,4.197
1829,534.46,4.196
1830,534.53,4.196
1831,534.62,4.195
1832,534.70,4.194
1833,534.78,4.193
1834,534.88,4.192
1835,534.95,4.191
1836,535.03,4.190
1837,535.11,4.189
1838,535.20,4.188
1839,535.28,4.187
1840,535.37,4.186
1841,535.46,4.185
1842,535.54,4.185
1843,535.62,4.184
1844,535.70,4.183
1845,535.79,4.182
1846,535.87,4.181
1847,535.95,4.180
1848,536.04,4.179
1849,536.12,4.178
1850,536.20,4.177
1851,536.29,4.176
1852,536.37,4.175
1853,536.46,4.174
1854,536.54,4.173
1855,536.62,4.172
1856,536.71,4.171
1857,536.79,4.171
1858,536.87,4.170
1859,536.96,4.169
1860,537.04,4.168
1861,537.12,4.167
1862,537.21,4.166
1863,537.29,4.165
1864,537.37,4.164
1865,537.45,4.163
1866,537.53,4.162
1867,537.63,4.161
1868,537.71,4.160
1869,537.79,4.159
1870,537.88,4.158
1871,537.95,4.157
1872,538.04,4.156
1873,538.12,4.155
1874,538.21,4.154
1875,538.29,4.153
1876,538.37,4.152
1877,538.46,4.151
1878,538.54,4.150
1879,538.62,4.150
1880,538.71,4.149
1881,538.79,4.148
1882,538.87,4.147
1883,538.96,4.146
1884,539.04,4.145
1885,539.13,4.144
1886,539.21,4.143
1887,539.29,4.142
1888,539.38,4.141
1889,539.46,4.140
1890,539.55,4.139
1891,539.63,4.138
1892,539.71,4.137
1893,539.79,4.136
1894,539.88,4.135
1895,539.96,4.134
1896,540.05,4.133
1897,540.12,4.132
1898,540.21,4.131
1899,540.29,4.130
1900,540.38,4.129
1901,540.46,4.128
1902,540.55,4.127
1903,540.63,4.126
1904,540.71,4.125
1905,540.79,4.124
1906,540.88,4.123
1907,540.97,4.122
1908,541.05,4.121
1909,541.13,4.120
1910,541.22,4.119
1911,541.30,4.118
1912,541.39,4.117
1913,541.47,4.116
1914,541.55,4.115
1915,541.63,4.114
1916,541.71,4.113
1917,541.80,4.112
1918,541.88,4.111
1919,541.97,4.110
1920,542.05,4.108
1921,542.14,4.107
1922,542.22,4.106
1923,542.30,4.105
1924,542.38,4.104
1925,542.46,4.103
1926,542.55,4.102
1927,542.64,4.101
1928,542.72,4.100
1929,542.80,4.099
1930,542.88,4.098
1931,542.96,4.097
1932,543.05,4.096
1933,543.13,4.095
1934,543.22,4.094
1935,543.30,4.093
1936,543.38,4.092
1937,543.47,4.091
1938,543.55,4.090
1939,543.64,4.089
1940,543.72,4.088
1941,543.80,4.087
1942,543.89,4.086
1943,543.97,4.084
1944,544.05,4.083
1945,544.13,4.082
1946,544.22,4.081
1947,544.30,4.080
1948,544.38,4.079
1949,544.47,4.078
1950,544.55,4.077
1951,544.63,4.076
1952,544.72,4.075
1953,544.80,4.074
1954,544.89,4.073
1955,544.97,4.072
1956,545.05,4.070
1957,545.14,4.069
1958,545.22,4.068
1959,545.30,4.067
1960,545.39,4.066
1961,545.48,4.065
1962,545.55,4.064
1963,545.64,4.063
1964,545.72,4.062
1965,545.81,4.061
1966,545.89,4.060
1967,545.97,4.059
1968,546.06,4.057
1969,546.14,4.056
1970,546.22,4.055
1971,546.30,4.054
1972,546.39,4.053
1973,546.48,4.052
1974,546.56,4.051
1975,546.64,4.050
1976,546.72,4.049
1977,546.81,4.047
1978,546.89,4.046
1979,546.98,4.045
1980,547.06,4.044
1981,547.14,4.043
1982,547.22,4.042
1983,547.31,4.041
1984,547.39,4.040
1985,547.47,4.039
1986,547.56,4.037
1987,547.65,4.036
1988,547.73,4.035
1989,547.81,4.034
1990,547.90,4.033
1991,547.98,4.032
1992,548.06,4.031
1993,548.15,4.030
1994,548.23,4.028
1995,548.31,4.027
1996,548.40,4.026
1997,548.47,4.025
1998,548.56,4.024
1999,548.65,4.023
2000,548.73,4.022
2001,548.81,4.020
2002,548.90,4.019
2003,548.98,4.018
2004,549.06,4.017
2005,549.14,4.016
2006,549.23,4.015
2007,549.31,4.013
2008,549.40,4.012
2009,549.48,4.011
2010,549.56,4.010
2011,549.64,4.009
2012,549.73,4.008
2013,549.81,4.006
2014,549.90,4.005
2015,549.98,4.004
2016,550.07,4.003
2017,550.15,4.002
2018,550.23,4.001
2019,550.31,3.999
2020,550.40,3.998
2021,550.48,3.997
2022,550.57,3.996
2023,550.65,3.995
2024,550.73,3.993
2025,550.81,3.992
2026,550.89,3.991
2027,550.98,3.990
2028,551.07,3.989
2029,551.16,3.987
2030,551.24,3.986
2031,551.32,3.985
2032,551.40,3.984
2033,551.48,3.983
2034,551.57,3.981
2035,551.65,3.980
2036,551.74,3.979
2037,551.82,3.978
2038,551.90,3.977
2039,551.98,3.975
2040,552.07,3.974
2041,552.15,3.973
2042,552.24,3.972
2043,552.33,3.970
2044,552.40,3.969
2045,552.48,3.968
2046,552.57,3.967
2047,552.65,3.965
2048,552.74,3.964
2049,552.82,3.963
2050,552.90,3.962
2051,552.99,3.960
2052,553.07,3.959
2053,553.15,3.958
2054,553.23,3.957
2055,553.32,3.955
2056,553.40,3.954
2057,553.49,3.953
2058,553.57,3.952
2059,553.66,3.950
2060,553.74,3.949
2061,553.82,3.948
2062,553.90,3.947
2063,553.99,3.945
2064,554.07,3.944
2065,554.16,3.943
2066,554.24,3.941
2067,554.32,3.940
2068,554.40,3.939
2069,554.49,3.938
2070,554.57,3.936
2071,554.66,3.935
2072,554.74,3.934
2073,554.82,3.932
2074,554.91,3.931
2075,554.99,3.930
2076,555.08,3.928
2077,555.16,3.927
2078,555.24,3.926
2079,555.32,3.925
2080,555.41,3.923
2081,555.50,3.922
2082,555.58,3.921
2083,555.66,3.920
2084,555.73,3.918
2085,555.82,3.917
2086,555.91,3.916
2087,556.00,3.914
2088,556.08,3.913
2089,556.16,3.912
2090,556.24,3.910
2091,556.32,3.909
2092,556.41,3.908
2093,556.49,3.906
2094,556.58,3.905
2095,556.66,3.904
2096,556.74,3.902
2097,556.82,3.901
2098,556.91,3.900
2099,556.99,3.898
2100,557.08,3.897
2101,557.16,3.896
2102,557.24,3.894
2103,557.33,3.893
2104,557.41,3.891
2105,557.49,3.890
2106,557.58,3.889
2107,557.66,3.887
2108,557.74,3.886
2109,557.83,3.885
2110,557.91,3.883
2111,558.00,3.882
2112,558.08,3.880
2113,558.16,3.879
2114,558.25,3.878
2115,558.33,3.876
2116,558.41,3.875
2117,558.50,3.874
2118,558.58,3.872
2119,558.66,3.871
2120,558.74,3.869
2121,558.83,3.868
2122,558.92,3.867
2123,559.00,3.865
2124,559.08,3.864
2125,559.16,3.862
2126,559.25,3.861
2127,559.33,3.860
2128,559.41,3.858
2129,559.50,3.857
2130,559.58,3.855
2131,559.66,3.854
2132,559.75,3.852
2133,559.83,3.851
2134,559.92,3.850
2135,560.00,3.848
2136,560.08,3.847
2137,560.17,3.845
2138,560.25,3.844
2139,560.33,3.843
2140,560.42,3.841
2141,560.50,3.840
2142,560.58,3.838
2143,560.67,3.837
2144,560.75,3.835
2145,560.84,3.834
2146,560.92,3.832
2147,561.00,3.831
2148,561.08,3.829
2149,561.17,3.828
2150,561.25,3.826
2151,561.34,3.825
2152,561.42,3.823
2153,561.50,3.822
2154,561.58,3.820
2155,561.67,3.819
2156,561.76,3.817
2157,561.84,3.816
2158,561.92,3.814
2159,562.00,3.813
2160,562.09,3.812
2161,562.17,3.810
2162,562.25,3.809
2163,562.34,3.807
2164,562.42,3.806
2165,562.50,3.804
2166,562.59,3.803
2167,562.67,3.801
2168,562.76,3.800
2169,562.84,3.798
2170,562.92,3.797
2171,563.00,3.795
2172,563.08,3.793
2173,563.17,3.792
2174,563.25,3.790
2175,563.35,3.789
2176,563.43,3.787
2177,563.51,3.786
2178,563.59,3.784
2179,563.67,3.783
2180,563.76,3.781
2181,563.84,3.780
2182,563.92,3.778
2183,564.01,3.776
2184,564.09,3.775
2185,564.18,3.773
2186,564.26,3.772
2187,564.34,3.770
2188,564.42,3.768
2189,564.51,3.767
2190,564.59,3.765
2191,564.68,3.764
2192,564.76,3.762
2193,564.84,3.761
2194,564.92,3.759
2195,565.01,3.757
2196,565.09,3.756
2197,565.17,3.754
2198,565.26,3.753
2199,565.34,3.751
2200,565.43,3.749
2201,565.51,3.748
2202,565.59,3.746
2203,565.68,3.745
2204,565.76,3.743
2205,565.85,3.741
2206,565.92,3.740
2207,566.01,3.738
2208,566.10,3.736
2209,566.18,3.735
2210,566.26,3.733
2211,566.34,3.731
2212,566.42,3.730
2213,566.51,3.728
2214,566.60,3.726
2215,566.68,3.725
2216,566.76,3.723
2217,566.85,3.721
2218,566.93,3.720
2219,567.01,3.718
2220,567.10,3.716
2221,567.18,3.715
2222,567.26,3.713
2223,567.35,3.711
2224,567.43,3.710
2225,567.51,3.708
2226,567.60,3.706
2227,567.68,3.704
2228,567.77,3.703
2229,567.85,3.701
2230,567.93,3.699
2231,568.01,3.697
2232,568.10,3.696
2233,568.18,3.694
2234,568.27,3.692
2235,568.35,3.690
2236,568.43,3.689
2237,568.51,3.687
2238,568.60,3.685
2239,568.69,3.684
2240,568.77,3.682
2241,568.85,3.680
2242,568.94,3.678
2243,569.02,3.677
2244,569.10,3.675
2245,569.18,3.673
2246,569.26,3.671
2247,569.35,3.670
2248,569.44,3.668
2249,569.52,3.666
2250,569.60,3.664
2251,569.68,3.662
2252,569.77,3.661
2253,569.86,3.659
2254,569.94,3.657
2255,570.02,3.655
2256,570.10,3.653
2257,570.18,3.651
2258,570.27,3.650
2259,570.35,3.648
2260,570.43,3.646
2261,570.52,3.644
2262,570.61,3.642
2263,570.69,3.640
2264,570.77,3.639
2265,570.86,3.637
2266,570.94,3.635
2267,571.02,3.633
2268,571.11,3.631
2269,571.19,3.629
2270,571.27,3.628
2271,571.36,3.626
2272,571.44,3.624
2273,571.53,3.622
2274,571.60,3.620
2275,571.69,3.618
2276,571.77,3.616
2277,571.86,3.614
2278,571.94,3.612
2279,572.02,3.611
2280,572.11,3.609
2281,572.19,3.607
2282,572.27,3.605
2283,572.36,3.603
2284,572.43,3.601
2285,572.52,3.599
2286,572.61,3.597
2287,572.69,3.595
2288,572.78,3.593
2289,572.86,3.591
2290,572.94,3.589
2291,573.02,3.587
2292,573.10,3.585
2293,573.19,3.583
2294,573.28,3.581
2295,573.36,3.579
2296,573.45,3.577
2297,573.52,3.575
2298,573.60,3.573
2299,573.69,3.571
2300,573.78,3.569
2301,573.86,3.567
2302,573.95,3.565
2303,574.03,3.563
2304,574.11,3.561
2305,574.19,3.559
2306,574.28,3.557
2307,574.36,3.555
2308,574.44,3.553
2309,574.52,3.551
2310,574.61,3.549
2311,574.69,3.547
2312,574.78,3.545
2313,574.87,3.543
2314,574.95,3.541
2315,575.02,3.539
2316,575.11,3.537
2317,575.19,3.535
2318,575.28,3.532
2319,575.37,3.530
2320,575.45,3.528
2321,575.52,3.526
2322,575.61,3.524
2323,575.69,3.522
2324,575.79,3.520
2325,575.87,3.518
2326,575.95,3.516
2327,576.03,3.514
2328,576.11,3.511
2329,576.19,3.509
2330,576.28,3.507
2331,576.36,3.505
2332,576.44,3.503
2333,576.53,3.501
2334,576.61,3.499
2335,576.70,3.496
2336,576.78,3.494
2337,576.87,3.492
2338,576.95,3.490
2339,577.03,3.488
2340,577.11,3.485
2341,577.19,3.483
2342,577.28,3.481
2343,577.37,3.479
2344,577.45,3.477
2345,577.53,3.474
2346,577.61,3.472
2347,577.69,3.470
2348,577.78,3.468
2349,577.87,3.465
2350,577.96,3.463
2351,578.03,3.461
2352,578.11,3.459
2353,578.20,3.457
2354,578.29,3.454
2355,578.37,3.452
2356,578.46,3.450
2357,578.54,3.447
2358,578.62,3.445
2359,578.70,3.443
2360,578.78,3.441
2361,578.87,3.438
2362,578.95,3.436
2363,579.04,3.434
2364,579.12,3.431
2365,579.20,3.429
2366,579.29,3.427
2367,579.37,3.424
2368,579.45,3.422
2369,579.54,3.420
2370,579.62,3.417
2371,579.70,3.415
2372,579.79,3.413
2373,579.87,3.410
2374,579.96,3.408
2375,580.04,3.405
2376,580.12,3.403
2377,580.20,3.401
2378,580.29,3.398
2379,580.37,3.396
2380,580.46,3.393
2381,580.54,3.391
2382,580.62,3.389
2383,580.71,3.386
2384,580.79,3.384
2385,580.87,3.381
2386,580.95,3.379
2387,581.04,3.376
2388,581.13,3.374
2389,581.21,3.371
2390,581.29,3.369
2391,581.37,3.366
2392,581.46,3.364
2393,581.54,3.361
2394,581.63,3.359
2395,581.71,3.356
2396,581.79,3.354
2397,581.88,3.351
2398,581.96,3.349
2399,582.05,3.346
2400,582.13,3.344
2401,582.20,3.341
2402,582.29,3.339
2403,582.38,3.336
2404,582.46,3.334
2405,582.55,3.331
2406,582.62,3.329
2407,582.70,3.326
2408,582.79,3.323
2409,582.88,3.321
2410,582.97,3.318
2411,583.04,3.316
2412,583.12,3.313
2413,583.21,3.311
2414,583.29,3.308
2415,583.38,3.305
2416,583.46,3.303
2417,583.55,3.300
2418,583.63,3.297
2419,583.71,3.295
2420,583.79,3.292
2421,583.88,3.289
2422,583.96,3.287
2423,584.04,3.284
2424,584.13,3.281
2425,584.21,3.279
2426,584.30,3.276
2427,584.38,3.273
2428,584.47,3.271
2429,584.55,3.268
2430,584.62,3.265
2431,584.71,3.262
2432,584.80,3.260
2433,584.89,3.257
2434,584.96,3.254
2435,585.05,3.251
2436,585.13,3.249
2437,585.22,3.246
2438,585.30,3.243
2439,585.38,3.240
2440,585.46,3.238
2441,585.55,3.235
2442,585.63,3.232
2443,585.72,3.229
2444,585.80,3.226
2445,585.88,3.223
2446,585.96,3.221
2447,586.05,3.218
2448,586.13,3.215
2449,586.21,3.212
2450,586.30,3.209
2451,586.39,3.206
2452,586.47,3.203
2453,586.55,3.201
2454,586.63,3.198
2455,586.72,3.195
2456,586.80,3.192
2457,586.89,3.189
2458,586.97,3.186
2459,587.05,3.183
2460,587.14,3.180
2461,587.22,3.177
2462,587.30,3.174
2463,587.38,3.171
2464,587.46,3.168
2465,587.55,3.165
2466,587.64,3.162
2467,587.72,3.159
2468,587.80,3.156
2469,587.89,3.153
2470,587.97,3.150
2471,588.05,3.147
2472,588.14,3.144
2473,588.22,3.141
2474,588.31,3.138
2475,588.39,3.135
2476,588.47,3.132
2477,588.55,3.129
2478,588.64,3.126
2479,588.72,3.123
2480,588.81,3.120
2481,588.89,3.117
2482,588.97,3.114
2483,589.05,3.110
2484,589.14,3.107
2485,589.22,3.104
2486,589.30,3.101
2487,589.39,3.098
2488,589.47,3.095
2489,589.56,3.092
2490,589.64,3.089
2491,589.72,3.085
2492,589.80,3.082
2493,589.89,3.079
2494,589.98,3.076
2495,590.06,3.073
2496,590.14,3.069
2497,590.23,3.066
2498,590.30,3.063
2499,590.39,3.060
2500,590.47,3.056
2501,590.56,3.053
2502,590.64,3.050
2503,590.72,3.047
2504,590.81,3.043
2505,590.90,3.040
2506,590.98,3.037
2507,591.06,3.033
2508,591.14,3.030
2509,591.22,3.027
2510,591.31,3.023
2511,591.40,3.020
2512,591.48,3.016
2513,591.56,3.013
2514,591.64,3.010
2515,591.73,3.006
2516,591.81,3.003
2517,591.90,2.999
2518,591.97,2.996
2519,592.06,2.992
2520,592.14,2.989
2521,592.23,2.985
2522,592.31,2.982
2523,592.40,2.978
2524,592.48,2.975
2525,592.56,2.971
2526,592.65,2.968
2527,592.73,2.964
2528,592.81,2.961
2529,592.90,2.957
2530,592.98,2.954
2531,593.06,2.950
2532,593.15,2.946
2533,593.23,2.943
2534,593.31,2.939
2535,593.39,2.935
2536,593.48,2.932
2537,593.56,2.928
2538,593.65,2.924
2539,593.73,2.921
2540,593.81,2.917
2541,593.89,2.913
2542,593.97,2.909
2543,594.07,2.906
2544,594.15,2.902
2545,594.24,2.898
2546,594.31,2.894
2547,594.39,2.890
2548,594.48,2.887
2549,594.56,2.883
2550,594.65,2.879
2551,594.73,2.875
2552,594.81,2.871
2553,594.90,2.867
2554,594.98,2.863
2555,595.07,2.859
2556,595.15,2.855
2557,595.23,2.851
2558,595.31,2.847
2559,595.40,2.843
2560,595.49,2.839
2561,595.58,2.835
2562,595.65,2.831
2563,595.73,2.827
2564,595.81,2.823
2565,595.90,2.819
2566,595.99,2.815
2567,596.08,2.811
2568,596.16,2.806
2569,596.23,2.802
2570,596.32,2.798
2571,596.40,2.794
2572,596.49,2.790
2573,596.57,2.785
2574,596.65,2.781
2575,596.73,2.777
2576,596.82,2.772
2577,596.91,2.768
2578,596.99,2.764
2579,597.07,2.759
2580,597.15,2.755
2581,597.24,2.751
2582,597.32,2.746
2583,597.41,2.742
2584,597.49,2.737
2585,597.57,2.733
2586,597.65,2.728
2587,597.73,2.724
2588,597.82,2.719
2589,597.91,2.715
2590,597.99,2.710
2591,598.07,2.706
2592,598.15,2.701
2593,598.24,2.696
2594,598.32,2.692
2595,598.41,2.687
2596,598.49,2.682
2597,598.58,2.677
2598,598.66,2.673
2599,598.74,2.668
2600,598.82,2.663
2601,598.90,2.658
2602,598.99,2.653
2603,599.08,2.649
2604,599.16,2.644
2605,599.24,2.639
2606,599.32,2.634
2607,599.41,2.629
2608,599.49,2.624
2609,599.57,2.619
2610,599.66,2.614
2611,599.74,2.609
2612,599.83,2.604
2613,599.91,2.598
2614,599.99,2.593
2615,600.08,2.588
2616,600.16,2.583
2617,600.24,2.578
2618,600.32,2.573
2619,600.41,2.567
2620,600.49,2.562
2621,600.58,2.557
2622,600.66,2.551
2623,600.74,2.546
2624,600.82,2.541
2625,600.91,2.535
2626,601.00,2.530
2627,601.07,2.525
2628,601.16,2.519
2629,601.25,2.514
2630,601.33,2.508
2631,601.42,2.503
2632,601.50,2.497
2633,601.58,2.492
2634,601.66,2.486
2635,601.75,2.481
2636,601.83,2.475
2637,601.91,2.469
2638,601.99,2.464
2639,602.08,2.458
2640,602.16,2.452
2641,602.25,2.447
2642,602.33,2.441
2643,602.41,2.435
2644,602.50,2.429
2645,602.58,2.424
2646,602.67,2.418
2647,602.74,2.412
2648,602.83,2.406
2649,602.92,2.400
2650,603.00,2.395
2651,603.08,2.389
2652,603.16,2.383
2653,603.25,2.377
2654,603.33,2.371
2655,603.41,2.365
2656,603.49,2.359
2657,603.58,2.353
2658,603.66,2.347
2659,603.75,2.341
2660,603.83,2.335
2661,603.92,2.329
2662,604.00,2.323
2663,604.08,2.317
2664,604.17,2.311
2665,604.25,2.305
2666,604.33,2.299
2667,604.42,2.293
2668,604.50,2.287
2669,604.58,2.281
2670,604.67,2.275
2671,604.75,2.269
2672,604.84,2.263
2673,604.92,2.257
2674,604.99,2.251
2675,605.08,2.245
2676,605.17,2.239
2677,605.26,2.233
2678,605.34,2.227
2679,605.42,2.221
2680,605.50,2.215
2681,605.58,2.209
2682,605.66,2.203
2683,605.75,2.197
2684,605.84,2.191
2685,605.92,2.185
2686,606.00,2.179
2687,606.08,2.173
2688,606.17,2.167
2689,606.26,2.161
2690,606.34,2.156
2691,606.42,2.150
2692,606.50,2.144
2693,606.59,2.138
2694,606.67,2.132
2695,606.75,2.126
2696,606.84,2.120
2697,606.92,2.114
2698,607.00,2.109
2699,607.08,2.103
2700,607.17,2.097
2701,607.26,2.091
2702,607.34,2.086
2703,607.43,2.080
2704,607.50,2.074
2705,607.59,2.069
2706,607.68,2.063
2707,607.76,2.057
2708,607.84,2.052
2709,607.92,2.046
2710,608.01,2.041
2711,608.09,2.035
2712,608.17,2.030
2713,608.26,2.024
2714,608.34,2.019
2715,608.43,2.014
2716,608.51,2.008
2717,608.59,2.003
2718,608.68,1.998
2719,608.76,1.993
2720,608.84,1.988
2721,608.92,1.982
2722,609.01,1.977
2723,609.09,1.972
2724,609.18,1.967
2725,609.26,1.962
2726,609.34,1.957
2727,609.42,1.952
2728,609.51,1.947
2729,609.59,1.942
2730,609.68,1.938
2731,609.76,1.933
2732,609.84,1.928
2733,609.93,1.923
2734,610.01,1.919
2735,610.09,1.914
2736,610.18,1.909
2737,610.26,1.905
2738,610.35,1.900
2739,610.43,1.896
2740,610.51,1.891
2741,610.59,1.887
2742,610.68,1.883
2743,610.77,1.878
2744,610.85,1.874
2745,610.93,1.870
2746,611.01,1.866
2747,611.10,1.861
2748,611.19,1.857
2749,611.27,1.853
2750,611.35,1.849
2751,611.43,1.845
2752,611.51,1.841
2753,611.60,1.837
2754,611.68,1.833
2755,611.77,1.829
2756,611.85,1.826
2757,611.93,1.822
2758,612.02,1.818
2759,612.10,1.814
2760,612.18,1.811
2761,612.27,1.807
2762,612.35,1.803
2763,612.43,1.800
2764,612.52,1.796
2765,612.60,1.793
2766,612.69,1.789
2767,612.77,1.786
2768,612.85,1.782
2769,612.93,1.779
2770,613.01,1.776
2771,613.10,1.773
2772,613.18,1.769
2773,613.27,1.766
2774,613.35,1.763
2775,613.43,1.760
2776,613.52,1.757
2777,613.60,1.754
2778,613.68,1.751
2779,613.77,1.748
2780,613.85,1.745
2781,613.94,1.742
2782,614.02,1.739
2783,614.10,1.736
2784,614.18,1.733
2785,614.27,1.730
2786,614.35,1.728
2787,614.44,1.725
2788,614.52,1.722
2789,614.60,1.719
2790,614.69,1.717
2791,614.77,1.714
2792,614.85,1.712
2793,614.93,1.709
2794,615.02,1.707
2795,615.10,1.704
2796,615.18,1.702
2797,615.27,1.699
2798,615.36,1.697
2799,615.44,1.694
2800,615.53,1.692
2801,615.60,1.690
2802,615.69,1.687
2803,615.77,1.685
2804,615.86,1.683
2805,615.93,1.681
2806,616.02,1.678
2807,616.11,1.676
2808,616.19,1.674
2809,616.27,1.672
2810,616.35,1.670
2811,616.44,1.667
2812,616.53,1.665
2813,616.61,1.663
2814,616.68,1.661
2815,616.77,1.659
2816,616.86,1.657
2817,616.94,1.655
2818,617.02,1.653
2819,617.11,1.651
2820,617.19,1.649
2821,617.28,1.647
2822,617.36,1.645
2823,617.44,1.643
2824,617.52,1.641
2825,617.61,1.639
2826,617.69,1.637
2827,617.78,1.635
2828,617.86,1.633
2829,617.94,1.631
2830,618.03,1.629
2831,618.11,1.628
2832,618.20,1.626
2833,618.28,1.624
2834,618.35,1.622
2835,618.44,1.620
2836,618.53,1.619
2837,618.61,1.617
2838,618.70,1.615
2839,618.78,1.613
2840,618.86,1.612
2841,618.94,1.610
2842,619.03,1.608
2843,619.11,1.607
2844,619.19,1.605
2845,619.27,1.603
2846,619.36,1.602
2847,619.45,1.600
2848,619.53,1.598
2849,619.61,1.597
2850,619.70,1.595
2851,619.78,1.593
2852,619.86,1.592
2853,619.94,1.590
2854,620.03,1.588
2855,620.12,1.587
2856,620.20,1.585
2857,620.27,1.584
2858,620.36,1.582
2859,620.45,1.581
2860,620.54,1.579
2861,620.62,1.578
2862,620.70,1.576
2863,620.77,1.574
2864,620.86,1.573
2865,620.95,1.571
2866,621.04,1.570
2867,621.11,1.568
2868,621.19,1.567
2869,621.28,1.565
2870,621.37,1.564
2871,621.45,1.562
2872,621.53,1.561
2873,621.61,1.560
2874,621.70,1.558
2875,621.79,1.557
2876,621.87,1.555
2877,621.95,1.554
2878,622.03,1.552
2879,622.12,1.551
2880,622.20,1.549
2881,622.29,1.548
2882,622.37,1.547
2883,622.45,1.545
2884,622.54,1.544
2885,622.62,1.542
2886,622.70,1.541
2887,622.79,1.540
2888,622.87,1.538
2889,622.95,1.537
2890,623.04,1.536
2891,623.12,1.534
2892,623.21,1.533
2893,623.28,1.532
2894,623.37,1.530
2895,623.45,1.529
2896,623.53,1.528
2897,623.62,1.526
2898,623.71,1.525
2899,623.79,1.524
2900,623.87,1.522
2901,623.95,1.521
2902,624.03,1.520
2903,624.12,1.519
2904,624.20,1.517
2905,624.29,1.516
2906,624.37,1.515
2907,624.46,1.513
2908,624.54,1.512
2909,624.62,1.511
2910,624.70,1.510
2911,624.79,1.508
2912,624.87,1.507
2913,624.95,1.506
2914,625.04,1.505
2915,625.12,1.503
2916,625.21,1.502
2917,625.29,1.501
2918,625.38,1.500
2919,625.46,1.499
2920,625.54,1.497
2921,625.62,1.496
2922,625.71,1.495
2923,625.79,1.494
2924,625.87,1.493
2925,625.95,1.491
2926,626.04,1.490
2927,626.13,1.489
2928,626.21,1.488
2929,626.29,1.487
2930,626.38,1.486
2931,626.46,1.484
2932,626.54,1.483
2933,626.62,1.482
2934,626.71,1.481
2935,626.79,1.480
2936,626.87,1.478
2937,626.96,1.477
2938,627.04,1.476
2939,627.13,1.475
2940,627.21,1.474
2941,627.29,1.473
2942,627.38,1.471
2943,627.46,1.470
2944,627.55,1.469
2945,627.63,1.468
2946,627.71,1.467
2947,627.79,1.466
2948,627.88,1.465
2949,627.96,1.464
2950,628.05,1.463
2951,628.14,1.461
2952,628.21,1.460
2953,628.29,1.459
2954,628.38,1.458
2955,628.47,1.457
2956,628.55,1.456
2957,628.63,1.455
2958,628.71,1.454
2959,628.79,1.453
2960,628.88,1.452
2961,628.96,1.451
2962,629.05,1.449
2963,629.13,1.448
2964,629.21,1.447
2965,629.30,1.446
2966,629.38,1.445
2967,629.47,1.444
2968,629.55,1.443
2969,629.63,1.442
2970,629.71,1.441
2971,629.80,1.440
2972,629.88,1.439
2973,629.96,1.438
2974,630.05,1.437
2975,630.13,1.436
2976,630.22,1.435
2977,630.31,1.434
2978,630.38,1.433
2979,630.46,1.432
2980,630.55,1.431
2981,630.64,1.430
2982,630.72,1.429
2983,630.80,1.428
2984,630.88,1.427
2985,630.97,1.426
2986,631.05,1.425
2987,631.14,1.424
2988,631.22,1.423
2989,631.30,1.422
2990,631.38,1.421
2991,631.47,1.420
2992,631.56,1.419
2993,631.63,1.418
2994,631.72,1.417
2995,631.80,1.416
2996,631.89,1.415
2997,631.97,1.414
2998,632.05,1.413
2999,632.14,1.412
3000,632.22,1.411
3001,632.31,1.410
3002,632.39,1.409
3003,632.47,1.408
3004,632.55,1.407
3005,632.64,1.406
3006,632.72,1.405
3007,632.81,1.404
3008,632.89,1.404
3009,632.97,1.403
3010,633.05,1.402
3011,633.14,1.401
3012,633.22,1.400
3013,633.31,1.399
3014,633.39,1.398
3015,633.47,1.397
3016,633.55,1.396
3017,633.64,1.395
3018,633.72,1.394
3019,633.81,1.393
3020,633.89,1.392
3021,633.98,1.391
3022,634.06,1.390
3023,634.13,1.389
3024,634.22,1.388
3025,634.31,1.388
3026,634.39,1.387
3027,634.47,1.386
3028,634.56,1.385
3029,634.64,1.384
3030,634.72,1.383
3031,634.80,1.382
3032,634.89,1.381
3033,634.97,1.380
3034,635.06,1.379
3035,635.14,1.378
3036,635.23,1.378
3037,635.31,1.377
3038,635.40,1.376
3039,635.48,1.375
3040,635.55,1.374
3041,635.64,1.373
3042,635.73,1.372
3043,635.81,1.371
3044,635.89,1.370
3045,635.97,1.369
3046,636.06,1.368
3047,636.15,1.367
3048,636.23,1.367
3049,636.31,1.366
3050,636.39,1.365
3051,636.48,1.364
3052,636.56,1.363
3053,636.65,1.362
3054,636.73,1.361
3055,636.82,1.361
3056,636.90,1.360
3057,636.98,1.359
3058,637.06,1.358
3059,637.15,1.357
3060,637.23,1.356
3061,637.31,1.356
3062,637.39,1.355
3063,637.48,1.354
3064,637.57,1.353
3065,637.65,1.352
3066,637.73,1.351
3067,637.81,1.351
3068,637.90,1.350
3069,637.98,1.349
3070,638.06,1.348
3071,638.14,1.347
3072,638.23,1.346
3073,638.31,1.345
3074,638.40,1.345
3075,638.49,1.344
3076,638.57,1.343
3077,638.65,1.342
3078,638.73,1.341
3079,638.81,1.340
3080,638.90,1.339
3081,638.98,1.339
3082,639.07,1.338
3083,639.15,1.337
3084,639.23,1.336
3085,639.31,1.335
3086,639.39,1.335
3087,639.48,1.334
3088,639.57,1.333
3089,639.65,1.332
3090,639.73,1.331
3091,639.82,1.330
3092,639.90,1.329
3093,639.98,1.329
3094,640.06,1.328
3095,640.15,1.327
3096,640.23,1.326
3097,640.32,1.325
3098,640.40,1.325
3099,640.48,1.324
3100,640.57,1.323
3101,640.66,1.322
3102,640.74,1.321
3103,640.82,1.321
3104,640.90,1.320
3105,640.99,1.319
3106,641.07,1.318
3107,641.15,1.317
3108,641.23,1.316
3109,641.31,1.316
3110,641.41,1.315
3111,641.50,1.314
3112,641.57,1.313
3113,641.65,1.312
3114,641.73,1.312
3115,641.82,1.311
3116,641.90,1.310
3117,641.99,1.309
3118,642.08,1.308
3119,642.16,1.308
3120,642.23,1.307
3121,642.32,1.306
3122,642.41,1.305
3123,642.49,1.305
3124,642.58,1.304
3125,642.66,1.303
3126,642.74,1.302
3127,642.83,1.301
3128,642.91,1.301
3129,642.99,1.300
3130,643.08,1.299
3131,643.16,1.298
3132,643.24,1.297
3133,643.32,1.297
3134,643.40,1.296
3135,643.49,1.295
3136,643.58,1.294
3137,643.66,1.294
3138,643.75,1.293
3139,643.82,1.292
3140,643.91,1.291
3141,643.99,1.290
3142,644.07,1.290
3143,644.16,1.289
3144,644.24,1.288
3145,644.33,1.287
3146,644.41,1.286
3147,644.49,1.286
3148,644.58,1.285
3149,644.66,1.284
3150,644.74,1.283
3151,644.83,1.283
3152,644.91,1.282
3153,644.99,1.281
3154,645.08,1.280
3155,645.16,1.280
3156,645.24,1.279
3157,645.33,1.278
3158,645.41,1.277
3159,645.50,1.277
3160,645.58,1.276
3161,645.66,1.275
3162,645.74,1.274
3163,645.83,1.274
3164,645.91,1.273
3165,646.00,1.272
3166,646.08,1.271
3167,646.16,1.271
3168,646.25,1.270
3169,646.33,1.269
3170,646.41,1.268
3171,646.49,1.268
3172,646.58,1.267
3173,646.67,1.266
3174,646.75,1.265
3175,646.83,1.265
3176,646.91,1.264
3177,647.00,1.263
3178,647.09,1.262
3179,647.16,1.261
3180,647.25,1.261
3181,647.33,1.260
3182,647.42,1.259
3183,647.49,1.258
3184,647.58,1.258
3185,647.66,1.257
3186,647.75,1.256
3187,647.84,1.255
3188,647.92,1.255
3189,648.00,1.254
3190,648.08,1.253
3191,648.17,1.252
3192,648.25,1.252
3193,648.33,1.251
3194,648.42,1.250
3195,648.50,1.249
3196,648.58,1.249
3197,648.67,1.248
3198,648.75,1.247
3199,648.83,1.246
3200,648.92,1.246
3201,649.00,1.245
3202,649.09,1.244
3203,649.16,1.244
3204,649.25,1.243
3205,649.34,1.242
3206,649.42,1.241
3207,649.50,1.241
3208,649.59,1.240
3209,649.67,1.239
3210,649.76,1.238
3211,649.84,1.238
3212,649.92,1.237
3213,650.01,1.236
3214,650.09,1.236
3215,650.17,1.235
3216,650.25,1.234
3217,650.34,1.233
3218,650.42,1.232
3219,650.50,1.232
3220,650.58,1.231
3221,650.67,1.230
3222,650.76,1.229
3223,650.84,1.229
3224,650.92,1.228
3225,651.00,1.227
3226,651.09,1.227
3227,651.17,1.226
3228,651.26,1.225
3229,651.34,1.224
3230,651.43,1.224
3231,651.51,1.223
3232,651.59,1.222
3233,651.67,1.222
3234,651.76,1.221
3235,651.84,1.220
3236,651.92,1.219
3237,652.00,1.219
3238,652.09,1.218
3239,652.17,1.217
3240,652.26,1.217
3241,652.34,1.216
3242,652.42,1.215
3243,652.51,1.214
3244,652.59,1.214
3245,652.68,1.213
3246,652.76,1.212
3247,652.84,1.211
3248,652.92,1.211
3249,653.00,1.210
3250,653.09,1.209
3251,653.18,1.209
3252,653.26,1.208
3253,653.35,1.207
3254,653.43,1.206
3255,653.51,1.206
3256,653.60,1.205
3257,653.68,1.204
3258,653.76,1.204
3259,653.84,1.203
3260,653.93,1.202
3261,654.01,1.201
3262,654.10,1.201
3263,654.18,1.200
3264,654.26,1.199
3265,654.34,1.199
3266,654.43,1.198
3267,654.51,1.197
3268,654.60,1.196
3269,654.68,1.196
3270,654.76,1.195
3271,654.85,1.194
3272,654.93,1.194
3273,655.01,1.193
3274,655.09,1.192
3275,655.18,1.192
3276,655.27,1.191
3277,655.35,1.190
3278,655.43,1.190
3279,655.51,1.189
3280,655.60,1.188
3281,655.68,1.187
3282,655.76,1.187
3283,655.84,1.186
3284,655.94,1.185
3285,656.02,1.185
3286,656.10,1.184
3287,656.18,1.183
3288,656.27,1.182
3289,656.35,1.182
3290,656.43,1.181
3291,656.51,1.180
3292,656.60,1.180
3293,656.68,1.179
3294,656.77,1.178
3295,656.85,1.177
3296,656.93,1.177
3297,657.02,1.176
3298,657.10,1.175
3299,657.18,1.175
3300,657.27,1.174
3301,657.35,1.173
3302,657.44,1.173
3303,657.52,1.172
3304,657.60,1.171
3305,657.69,1.171
3306,657.77,1.170
3307,657.85,1.169
3308,657.94,1.168
3309,658.03,1.168
3310,658.10,1.167
3311,658.18,1.166
3312,658.27,1.166
3313,658.36,1.165
3314,658.44,1.164
3315,658.52,1.164
3316,658.60,1.163
3317,658.68,1.162
3318,658.77,1.161
3319,658.85,1.161
3320,658.94,1.160
3321,659.02,1.159
3322,659.10,1.159
3323,659.19,1.158
3324,659.27,1.157
3325,659.35,1.157
3326,659.44,1.156
3327,659.53,1.155
3328,659.60,1.155
3329,659.69,1.154
3330,659.77,1.153
3331,659.86,1.153
3332,659.94,1.152
3333,660.02,1.151
3334,660.11,1.151
3335,660.19,1.150
3336,660.27,1.149
3337,660.36,1.148
3338,660.44,1.148
3339,660.53,1.147
3340,660.61,1.146
3341,660.69,1.146
3342,660.77,1.145
3343,660.86,1.144
3344,660.94,1.144
3345,661.02,1.143
3346,661.11,1.142
3347,661.19,1.142
3348,661.28,1.141
3349,661.36,1.140
3350,661.44,1.139
3351,661.53,1.139
3352,661.61,1.138
3353,661.69,1.137
3354,661.78,1.137
3355,661.86,1.136
3356,661.94,1.135
3357,662.03,1.135
3358,662.11,1.134
3359,662.19,1.133
3360,662.28,1.133
3361,662.36,1.132
3362,662.44,1.131
3363,662.53,1.131
3364,662.61,1.130
3365,662.70,1.129
3366,662.78,1.129
3367,662.86,1.128
3368,662.94,1.127
3369,663.03,1.126
3370,663.11,1.126
3371,663.19,1.125
3372,663.27,1.124
3373,663.36,1.124
3374,663.45,1.123
3375,663.54,1.122
3376,663.62,1.122
3377,663.69,1.121
3378,663.78,1.120
3379,663.86,1.120
3380,663.95,1.119
3381,664.03,1.118
3382,664.11,1.118
3383,664.20,1.117
3384,664.28,1.116
3385,664.36,1.116
3386,664.44,1.115
3387,664.53,1.114
3388,664.62,1.114
3389,664.70,1.113
3390,664.78,1.112
3391,664.86,1.112
3392,664.95,1.111
3393,665.04,1.110
3394,665.12,1.110
3395,665.20,1.109
3396,665.28,1.108
3397,665.36,1.107
3398,665.45,1.107
3399,665.54,1.106
3400,665.62,1.105
3401,665.70,1.105
3402,665.78,1.104
3403,665.87,1.103
3404,665.95,1.103
3405,666.04,1.102
3406,666.12,1.101
3407,666.20,1.101
3408,666.28,1.100
3409,666.37,1.099
3410,666.45,1.099
3411,666.53,1.098
3412,666.61,1.097
3413,666.70,1.097
3414,666.79,1.096
3415,666.87,1.095
3416,666.96,1.095
3417,667.03,1.094
3418,667.12,1.093
3419,667.20,1.093
3420,667.29,1.092
3421,667.37,1.091
3422,667.46,1.090
3423,667.54,1.090
3424,667.62,1.089
3425,667.71,1.088
3426,667.79,1.088
3427,667.87,1.087
3428,667.96,1.086
3429,668.04,1.086
3430,668.12,1.085
3431,668.20,1.084
3432,668.28,1.084
3433,668.37,1.083
3434,668.46,1.082
3435,668.54,1.082
3436,668.63,1.081
3437,668.70,1.080
3438,668.79,1.080
3439,668.87,1.079
3440,668.96,1.078
3441,669.04,1.078
3442,669.12,1.077
3443,669.21,1.076
3444,669.29,1.076
3445,669.37,1.075
3446,669.46,1.074
3447,669.55,1.074
3448,669.62,1.073
3449,669.71,1.072
3450,669.79,1.072
3451,669.87,1.071
3452,669.96,1.070
3453,670.04,1.069
3454,670.13,1.069
3455,670.21,1.068
3456,670.30,1.067
3457,670.37,1.067
3458,670.46,1.066
3459,670.55,1.065
3460,670.62,1.065
3461,670.70,1.064
3462,670.79,1.063
3463,670.88,1.063
3464,670.97,1.062
3465,671.04,1.061
3466,671.13,1.061
3467,671.21,1.060
3468,671.30,1.059
3469,671.37,1.059
3470,671.46,1.058
3471,671.54,1.057
3472,671.62,1.057
3473,671.72,1.056
3474,671.80,1.055
3475,671.88,1.055
3476,671.96,1.054
3477,672.05,1.053
3478,672.13,1.053
3479,672.22,1.052
3480,672.30,1.051
3481,672.38,1.050
3482,672.46,1.050
3483,672.55,1.049
3484,672.63,1.048
3485,672.72,1.048
3486,672.80,1.047
3487,672.88,1.046
3488,672.96,1.046
3489,673.04,1.045
3490,673.13,1.044
3491,673.22,1.044
3492,673.30,1.043
3493,673.38,1.042
3494,673.46,1.042
3495,673.55,1.041
3496,673.63,1.040
3497,673.71,1.040
3498,673.80,1.039
3499,673.88,1.038
3500,673.97,1.038
3501,674.05,1.037
3502,674.13,1.036
3503,674.22,1.036
3504,674.30,1.035
3505,674.38,1.034
3506,674.46,1.034
3507,674.56,1.033
3508,674.63,1.032
3509,674.72,1.032
3510,674.80,1.031
3511,674.89,1.030
3512,674.97,1.029
3513,675.05,1.029
3514,675.14,1.028
3515,675.22,1.027
3516,675.31,1.027
3517,675.39,1.026
3518,675.47,1.025
3519,675.55,1.025
3520,675.64,1.024
3521,675.72,1.023
3522,675.80,1.023
3523,675.89,1.022
3524,675.97,1.021
3525,676.05,1.021
3526,676.14,1.020
3527,676.22,1.019
3528,676.31,1.019
3529,676.39,1.018
3530,676.47,1.017
3531,676.55,1.016
3532,676.63,1.016
3533,676.72,1.015
3534,676.80,1.014
3535,676.89,1.014
3536,676.98,1.013
3537,677.06,1.012
3538,677.14,1.012
3539,677.22,1.011
3540,677.31,1.010
3541,677.39,1.010
3542,677.47,1.009
3543,677.56,1.008
3544,677.64,1.008
3545,677.72,1.007
3546,677.81,1.006
3547,677.89,1.006
3548,677.97,1.005
3549,678.06,1.004
3550,678.15,1.003
3551,678.22,1.003
3552,678.30,1.002
3553,678.39,1.001
3554,678.48,1.001
3555,678.56,1.000
3556,678.64,0.999
3557,678.72,0.999
3558,678.81,0.998
3559,678.90,0.997
3560,678.98,0.997
3561,679.06,0.996
3562,679.14,0.995
3563,679.23,0.994
3564,679.32,0.994
3565,679.39,0.993
3566,679.48,0.992
3567,679.56,0.992
3568,679.65,0.991
3569,679.73,0.990
3570,679.81,0.990
3571,679.90,0.989
3572,679.98,0.988
3573,680.06,0.988
3574,680.14,0.987
3575,680.23,0.986
3576,680.31,0.986
3577,680.39,0.985
3578,680.48,0.984
3579,680.57,0.984
3580,680.64,0.983
3581,680.73,0.982
3582,680.82,0.981
3583,680.90,0.981
3584,680.98,0.980
3585,681.06,0.979
3586,681.15,0.979
3587,681.23,0.978
3588,681.31,0.977
3589,681.39,0.977
3590,681.48,0.976
3591,681.57,0.975
3592,681.65,0.974
3593,681.73,0.974
3594,681.82,0.973
3595,681.90,0.972
3596,681.98,0.972
3597,682.07,0.971
3598,682.15,0.970
3599,682.23,0.969
3600,682.31,0.969
3601,682.40,0.968
3602,682.48,0.967
3603,682.56,0.967
3604,682.65,0.966
3605,682.73,0.965
3606,682.82,0.965
3607,682.90,0.964
3608,682.98,0.963
3609,683.06,0.962
3610,683.15,0.962
3611,683.23,0.961
3612,683.32,0.960
3613,683.40,0.960
3614,683.49,0.959
3615,683.56,0.958
3616,683.65,0.957
3617,683.74,0.957
3618,683.82,0.956
3619,683.90,0.955
3620,683.98,0.955
3621,684.07,0.954
3622,684.15,0.953
3623,684.23,0.952
3624,684.32,0.952
3625,684.40,0.951
3626,684.49,0.950
3627,684.57,0.950
3628,684.65,0.949
3629,684.74,0.948
3630,684.82,0.948
3631,684.90,0.947
3632,684.99,0.946
3633,685.06,0.945
3634,685.15,0.945
3635,685.24,0.944
3636,685.33,0.943
3637,685.40,0.942
3638,685.48,0.942
3639,685.57,0.941
3640,685.66,0.940
3641,685.74,0.940
3642,685.83,0.939
3643,685.91,0.938
3644,685.99,0.937
3645,686.07,0.937
3646,686.16,0.936
3647,686.24,0.935
3648,686.32,0.935
3649,686.40,0.934
3650,686.49,0.933
3651,686.57,0.932
3652,686.66,0.932
3653,686.74,0.931
3654,686.83,0.930
3655,686.91,0.929
3656,686.99,0.929
3657,687.07,0.928
3658,687.15,0.927
3659,687.24,0.927
3660,687.32,0.926
3661,687.40,0.925
3662,687.49,0.924
3663,687.57,0.924
3664,687.66,0.923
3665,687.74,0.922
3666,687.83,0.921
3667,687.91,0.921
3668,687.99,0.920
3669,688.07,0.919
3670,688.16,0.918
3671,688.24,0.918
3672,688.33,0.917
3673,688.41,0.916
3674,688.50,0.916
3675,688.58,0.915
3676,688.66,0.914
3677,688.75,0.913
3678,688.83,0.913
3679,688.91,0.912
3680,689.00,0.911
3681,689.08,0.910
3682,689.16,0.910
3683,689.24,0.909
3684,689.33,0.908
3685,689.42,0.907
3686,689.50,0.907
3687,689.58,0.906
3688,689.66,0.905
3689,689.75,0.904
3690,689.83,0.904
3691,689.91,0.903
3692,689.99,0.902
3693,690.08,0.901
3694,690.17,0.901
3695,690.25,0.900
3696,690.33,0.899
3697,690.41,0.898
3698,690.50,0.898
3699,690.58,0.897
3700,690.67,0.896
3701,690.75,0.895
3702,690.83,0.895
3703,690.92,0.894
3704,691.00,0.893
3705,691.08,0.892
3706,691.16,0.892
3707,691.25,0.891
3708,691.33,0.890
3709,691.42,0.889
3710,691.50,0.889
3711,691.58,0.888
3712,691.67,0.887
3713,691.75,0.886
3714,691.83,0.886
3715,691.91,0.885
3716,692.00,0.884
3717,692.08,0.883
3718,692.17,0.883
3719,692.25,0.882
3720,692.34,0.881
3721,692.42,0.880
3722,692.50,0.880
3723,692.58,0.879
3724,692.67,0.878
3725,692.75,0.877
3726,692.84,0.877
3727,692.93,0.876
3728,693.01,0.875
3729,693.09,0.874
3730,693.16,0.873
3731,693.25,0.873
3732,693.34,0.872
3733,693.42,0.871
3734,693.50,0.870
3735,693.58,0.870
3736,693.67,0.869
3737,693.76,0.868
3738,693.84,0.867
3739,693.92,0.866
3740,694.00,0.866
3741,694.09,0.865
3742,694.17,0.864
3743,694.25,0.863
3744,694.33,0.862
3745,694.42,0.862
3746,694.51,0.861
3747,694.59,0.860
3748,694.67,0.859
3749,694.76,0.859
3750,694.84,0.858
3751,694.92,0.857
3752,695.01,0.856
3753,695.09,0.855
3754,695.18,0.855
3755,695.25,0.854
3756,695.34,0.853
3757,695.42,0.852
3758,695.51,0.852
3759,695.60,0.851
3760,695.68,0.850
3761,695.75,0.849
3762,695.84,0.848
3763,695.92,0.848
3764,696.01,0.847
3765,696.09,0.846
3766,696.17,0.845
3767,696.26,0.844
3768,696.34,0.844
3769,696.43,0.843
3770,696.52,0.842
3771,696.59,0.841
3772,696.67,0.840
3773,696.76,0.840
3774,696.84,0.839
3775,696.93,0.838
3776,697.01,0.837
3777,697.09,0.836
3778,697.17,0.836
3779,697.26,0.835
3780,697.35,0.834
3781,697.43,0.833
3782,697.51,0.832
3783,697.59,0.832
3784,697.68,0.831
3785,697.76,0.830
3786,697.84,0.829
3787,697.93,0.828
3788,698.02,0.828
3789,698.10,0.827
3790,698.18,0.826
3791,698.26,0.825
3792,698.35,0.824
3793,698.43,0.823
3794,698.51,0.823
3795,698.60,0.822
3796,698.68,0.821
3797,698.76,0.820
3798,698.85,0.819
3799,698.94,0.818
3800,699.01,0.818
3801,699.10,0.817
3802,699.18,0.816
3803,699.26,0.815
3804,699.35,0.814
3805,699.43,0.813
3806,699.52,0.812
3807,699.60,0.811
3808,699.68,0.811
3809,699.77,0.810
3810,699.85,0.808
3811,699.93,0.808
3812,700.02,0.807
3813,700.10,0.806
3814,700.19,0.804
3815,700.27,0.804
3816,700.35,0.803
3817,700.43,0.802
3818,700.52,0.801
3819,700.60,0.800
3820,700.68,0.799
3821,700.76,0.799
3822,700.85,0.798
3823,700.93,0.798
3824,701.01,0.797
3825,701.09,0.796
3826,701.18,0.796
3827,701.26,0.795
3828,701.35,0.794
3829,701.43,0.793
3830,701.52,0.792
3831,701.60,0.792
3832,701.68,0.791
3833,701.76,0.790
3834,701.85,0.789
3835,701.94,0.788
3836,702.02,0.788
3837,702.09,0.787
3838,702.18,0.786
3839,702.27,0.785
3840,702.35,0.784
3841,702.44,0.783
3842,702.52,0.782
3843,702.60,0.782
3844,702.68,0.781
3845,702.77,0.780
3846,702.85,0.779
3847,702.93,0.778
3848,703.02,0.777
3849,703.10,0.776
3850,703.19,0.775
3851,703.26,0.775
3852,703.35,0.774
3853,703.44,0.773
3854,703.52,0.772
3855,703.60,0.771
3856,703.69,0.770
3857,703.77,0.769
3858,703.85,0.768
3859,703.94,0.768
3860,704.02,0.767
3861,704.10,0.766
3862,704.18,0.765
3863,704.27,0.764
3864,704.35,0.763
3865,704.43,0.762
3866,704.51,0.761
3867,704.60,0.761
3868,704.68,0.760
3869,704.77,0.759
3870,704.84,0.758
3871,704.93,0.757
3872,705.02,0.756
3873,705.11,0.755
3874,705.19,0.754
3875,705.26,0.754
3876,705.35,0.753
3877,705.43,0.752
3878,705.52,0.751
3879,705.60,0.750
3880,705.68,0.749
3881,705.76,0.748
3882,705.84,0.747
3883,705.93,0.746
3884,706.02,0.745
3885,706.10,0.745
3886,706.18,0.744
3887,706.26,0.743
3888,706.35,0.742
3889,706.43,0.741
3890,706.52,0.740
3891,706.60,0.739
3892,706.69,0.738
3893,706.77,0.737
3894,706.84,0.736
3895,706.93,0.735
3896,707.02,0.734
3897,707.10,0.734
3898,707.18,0.733
3899,707.27,0.732
3900,707.35,0.731
3901,707.43,0.730
3902,707.51,0.729
3903,707.60,0.728
3904,707.69,0.727
3905,707.77,0.726
3906,707.84,0.725
3907,707.94,0.724
3908,708.02,0.723
3909,708.10,0.722
3910,708.19,0.721
3911,708.26,0.720
3912,708.35,0.719
3913,708.44,0.719
3914,708.52,0.718
3915,708.59,0.717
3916,708.69,0.716
3917,708.77,0.715
3918,708.85,0.714
3919,708.94,0.713
3920,709.02,0.712
3921,709.10,0.711
3922,709.18,0.710
3923,709.27,0.709
3924,709.36,0.708
3925,709.43,0.707
3926,709.51,0.706
3927,709.59,0.705
3928,709.68,0.704
3929,709.77,0.703
3930,709.85,0.702
3931,709.93,0.702
3932,710.01,0.701
3933,710.10,0.700
3934,710.18,0.699
3935,710.27,0.698
3936,710.35,0.697
3937,710.43,0.696
3938,710.51,0.695
3939,710.60,0.694
3940,710.68,0.693
3941,710.76,0.692
3942,710.85,0.691
3943,710.94,0.690
3944,711.01,0.689
3945,711.10,0.688
3946,711.19,0.687
3947,711.27,0.686
3948,711.35,0.685
3949,711.43,0.684
3950,711.51,0.683
3951,711.60,0.682
3952,711.68,0.681
3953,711.77,0.680
3954,711.85,0.680
3955,711.94,0.679
3956,712.02,0.678
3957,712.10,0.677
3958,712.18,0.676
3959,712.27,0.675
3960,712.35,0.674
3961,712.43,0.673
3962,712.51,0.672
3963,712.60,0.671
3964,712.68,0.670
3965,712.76,0.669
3966,712.85,0.668
3967,712.94,0.667
3968,713.01,0.666
3969,713.10,0.665
3970,713.19,0.664
3971,713.27,0.663
3972,713.35,0.662
3973,713.43,0.661
3974,713.52,0.661
3975,713.60,0.660
3976,713.68,0.659
3977,713.77,0.658
3978,713.86,0.657
3979,713.93,0.656
3980,714.02,0.655
3981,714.10,0.654
3982,714.19,0.653
3983,714.27,0.652
3984,714.35,0.651
3985,714.43,0.650
3986,714.52,0.649
3987,714.60,0.648
3988,714.68,0.647
3989,714.77,0.646
3990,714.85,0.645
3991,714.93,0.644
3992,715.02,0.643
3993,715.10,0.642
3994,715.18,0.641
3995,715.26,0.640
3996,715.35,0.639
3997,715.43,0.638
3998,715.51,0.637
3999,715.60,0.636
4000,715.69,0.635
4001,715.77,0.634
4002,715.84,0.633
4003,715.93,0.632
4004,716.01,0.631
4005,716.10,0.630
4006,716.18,0.629
4007,716.27,0.628
4008,716.35,0.627
4009,716.43,0.626
4010,716.51,0.625
4011,716.61,0.624
4012,716.69,0.623
4013,716.76,0.622
4014,716.85,0.621
4015,716.94,0.620
4016,717.02,0.619
4017,717.10,0.618
4018,717.18,0.617
4019,717.27,0.616
4020,717.35,0.615
4021,717.43,0.614
4022,717.52,0.613
4023,717.60,0.612
4024,717.68,0.611
4025,717.77,0.610
4026,717.85,0.609
4027,717.93,0.608
4028,718.02,0.607
4029,718.10,0.606
4030,718.18,0.605
4031,718.27,0.604
4032,718.36,0.603
4033,718.43,0.602
4034,718.51,0.601
4035,718.60,0.600
4036,718.68,0.599
4037,718.77,0.598
4038,718.86,0.597
4039,718.93,0.596
4040,719.01,0.595
4041,719.10,0.594
4042,719.18,0.593
4043,719.27,0.592
4044,719.35,0.591
4045,719.44,0.590
4046,719.52,0.589
4047,719.60,0.588
4048,719.68,0.587
4049,719.77,0.586
4050,719.85,0.585
4051,719.93,0.584
4052,720.01,0.583
4053,720.10,0.582
4054,720.18,0.581
4055,720.27,0.580
4056,720.35,0.579
4057,720.44,0.578
4058,720.52,0.577
4059,720.60,0.576
4060,720.68,0.575
4061,720.76,0.574
4062,720.85,0.573
4063,720.93,0.572
4064,721.02,0.571
4065,721.10,0.570
4066,721.18,0.569
4067,721.27,0.568
4068,721.35,0.566
4069,721.44,0.565
4070,721.52,0.564
4071,721.60,0.563
4072,721.69,0.562
4073,721.77,0.561
4074,721.85,0.560
4075,721.93,0.559
4076,722.02,0.558
4077,722.10,0.557
4078,722.18,0.556
4079,722.27,0.555
4080,722.35,0.554
4081,722.44,0.553
4082,722.52,0.552
4083,722.60,0.551
4084,722.69,0.550
4085,722.77,0.549
4086,722.84,0.548
4087,722.93,0.547
4088,723.02,0.546
4089,723.10,0.545
4090,723.18,0.544
4091,723.27,0.543
4092,723.35,0.542
4093,723.43,0.541
4094,723.52,0.540
4095,723.60,0.539
4096,723.69,0.538
4097,723.77,0.537
4098,723.84,0.536
4099,723.93,0.535
4100,724.02,0.534
4101,724.10,0.533
4102,724.19,0.531
4103,724.27,0.530
4104,724.35,0.529
4105,724.43,0.528
4106,724.51,0.527
4107,724.60,0.526
4108,724.68,0.525
4109,724.77,0.524
4110,724.85,0.523
4111,724.93,0.522
4112,725.01,0.521
4113,725.09,0.520
4114,725.19,0.519
4115,725.27,0.518
4116,725.36,0.517
4117,725.44,0.516
4118,725.51,0.515
4119,725.60,0.514
4120,725.69,0.513
4121,725.77,0.512
4122,725.85,0.511
4123,725.93,0.510
4124,726.02,0.508
4125,726.10,0.507
4126,726.18,0.506
4127,726.27,0.505
4128,726.35,0.504
4129,726.43,0.503
4130,726.52,0.502
4131,726.60,0.501
4132,726.68,0.500
4133,726.77,0.499
4134,726.85,0.498
4135,726.93,0.497
4136,727.02,0.496
4137,727.11,0.495
4138,727.18,0.494
4139,727.26,0.493
4140,727.35,0.492
4141,727.44,0.491
4142,727.51,0.489
4143,727.59,0.488
4144,727.68,0.487
4145,727.77,0.486
4146,727.86,0.485
4147,727.94,0.484
4148,728.02,0.483
4149,728.10,0.482
4150,728.18,0.481
4151,728.27,0.480
4152,728.35,0.479
4153,728.44,0.478
4154,728.52,0.477
4155,728.60,0.476
4156,728.68,0.475
4157,728.76,0.474
4158,728.85,0.472
4159,728.93,0.471
4160,729.01,0.470
4161,729.10,0.469
4162,729.19,0.468
4163,729.27,0.467
4164,729.35,0.466
4165,729.43,0.465
4166,729.51,0.464
4167,729.60,0.463
4168,729.68,0.462
4169,729.77,0.461
4170,729.85,0.459
4171,729.93,0.458
4172,730.02,0.457
4173,730.10,0.456
4174,730.18,0.455
4175,730.27,0.454
4176,730.35,0.453
4177,730.44,0.452
4178,730.52,0.451
4179,730.60,0.450
4180,730.68,0.449
4181,730.77,0.448
4182,730.85,0.447
4183,730.93,0.445
4184,731.02,0.444
4185,731.10,0.443
4186,731.18,0.442
4187,731.26,0.441
4188,731.35,0.440
4189,731.44,0.439
4190,731.52,0.438
4191,731.60,0.437
4192,731.69,0.436
4193,731.77,0.435
4194,731.84,0.434
4195,731.93,0.432
4196,732.02,0.431
4197,732.11,0.430
4198,732.18,0.429
4199,732.26,0.428
4200,732.34,0.427
4201,732.43,0.426
4202,732.52,0.425
4203,732.60,0.424
4204,732.69,0.423
4205,732.77,0.421
4206,732.85,0.420
4207,732.94,0.419
4208,733.02,0.418
4209,733.10,0.417
4210,733.18,0.416
4211,733.26,0.415
4212,733.35,0.414
4213,733.43,0.413
4214,733.52,0.411
4215,733.60,0.410
4216,733.69,0.409
4217,733.76,0.408
4218,733.85,0.407
4219,733.93,0.406
4220,734.01,0.405
4221,734.10,0.404
4222,734.18,0.403
4223,734.26,0.401
4224,734.34,0.400
4225,734.43,0.399
4226,734.52,0.398
4227,734.60,0.397
4228,734.68,0.396
4229,734.77,0.395
4230,734.85,0.394
4231,734.93,0.393
4232,735.02,0.391
4233,735.10,0.390
4234,735.18,0.389
4235,735.27,0.388
4236,735.35,0.387
4237,735.43,0.386
4238,735.52,0.385
4239,735.60,0.384
4240,735.68,0.382
4241,735.77,0.381
4242,735.85,0.380
4243,735.94,0.379
4244,736.02,0.378
4245,736.10,0.377
4246,736.19,0.376
4247,736.27,0.374
4248,736.35,0.373
4249,736.43,0.372
4250,736.52,0.371
4251,736.60,0.370
4252,736.68,0.369
4253,736.77,0.368
4254,736.85,0.366
4255,736.94,0.365
4256,737.02,0.364
4257,737.10,0.363
4258,737.19,0.362
4259,737.27,0.361
4260,737.35,0.360
4261,737.43,0.359
4262,737.52,0.357
4263,737.60,0.356
4264,737.68,0.355
4265,737.77,0.354
4266,737.85,0.353
4267,737.93,0.352
4268,738.01,0.350
4269,738.10,0.349
4270,738.18,0.348
4271,738.27,0.347
4272,738.35,0.346
4273,738.43,0.345
4274,738.52,0.344
4275,738.60,0.342
4276,738.68,0.341
4277,738.77,0.340
4278,738.85,0.339
4279,738.93,0.338
4280,739.02,0.337
4281,739.11,0.336
4282,739.18,0.334
4283,739.27,0.333
4284,739.35,0.332
4285,739.43,0.331
4286,739.52,0.330
4287,739.60,0.329
4288,739.69,0.327
4289,739.77,0.326
4290,739.85,0.325
4291,739.93,0.324
4292,740.01,0.323
4293,740.10,0.322
4294,740.19,0.320
4295,740.27,0.319
4296,740.35,0.318
4297,740.43,0.317
4298,740.52,0.316
4299,740.61,0.315
4300,740.68,0.313
4301,740.76,0.312
4302,740.85,0.311
4303,740.93,0.310
4304,741.02,0.309
4305,741.10,0.307
4306,741.18,0.306
4307,741.26,0.305
4308,741.35,0.304
4309,741.44,0.303
4310,741.52,0.301
4311,741.61,0.300
4312,741.68,0.299
4313,741.77,0.298
4314,741.85,0.297
4315,741.94,0.296
4316,742.02,0.294
4317,742.10,0.293
4318,742.18,0.292
4319,742.26,0.291
4320,742.35,0.290
4321,742.43,0.288
4322,742.52,0.287
4323,742.60,0.286
4324,742.68,0.285
4325,742.77,0.284
4326,742.85,0.282
4327,742.93,0.281
4328,743.01,0.280
4329,743.10,0.279
4330,743.18,0.278
4331,743.26,0.276
4332,743.35,0.275
4333,743.44,0.274
4334,743.52,0.273
4335,743.60,0.271
4336,743.69,0.270
4337,743.77,0.269
4338,743.84,0.268
4339,743.93,0.267
4340,744.02,0.265
4341,744.10,0.264
4342,744.18,0.263
4343,744.27,0.262
4344,744.35,0.260
4345,744.43,0.259
4346,744.52,0.258
4347,744.60,0.257
4348,744.69,0.256
4349,744.76,0.254
4350,744.85,0.253
4351,744.94,0.252
4352,745.02,0.251
4353,745.10,0.249
4354,745.18,0.248
4355,745.27,0.247
4356,745.35,0.246
4357,745.44,0.244
4358,745.51,0.243
4359,745.60,0.242
4360,745.69,0.241
4361,745.77,0.239
4362,745.85,0.238
4363,745.93,0.237
4364,746.02,0.236
4365,746.10,0.234
4366,746.18,0.233
4367,746.27,0.232
4368,746.36,0.231
4369,746.44,0.230
4370,746.51,0.228
4371,746.60,0.227
4372,746.68,0.226
4373,746.76,0.225
4374,746.85,0.223
4375,746.93,0.222
4376,747.02,0.221
4377,747.10,0.219
4378,747.18,0.218
4379,747.27,0.217
4380,747.34,0.216
4381,747.44,0.214
4382,747.52,0.213
4383,747.61,0.212
4384,747.69,0.211
4385,747.76,0.209
4386,747.85,0.208
4387,747.94,0.207
4388,748.02,0.205
4389,748.10,0.204
4390,748.18,0.203
4391,748.26,0.202
4392,748.35,0.200
4393,748.44,0.199
4394,748.51,0.198
4395,748.60,0.196
4396,748.69,0.195
4397,748.77,0.194
4398,748.85,0.193
4399,748.94,0.191
4400,749.02,0.190
4401,749.09,0.189
4402,749.18,0.187
4403,749.27,0.186
4404,749.35,0.185
4405,749.43,0.183
4406,749.52,0.182
4407,749.60,0.181
4408,749.69,0.179
4409,749.77,0.178
4410,749.84,0.176
4411,749.93,0.175
4412,750.02,0.174
4413,750.10,0.173
4414,750.18,0.171
4415,750.26,0.170
4416,750.35,0.169
4417,750.43,0.168
4418,750.52,0.167
4419,750.61,0.165
4420,750.69,0.164
4421,750.77,0.163
4422,750.85,0.162
4423,750.93,0.160
4424,751.02,0.159
4425,751.10,0.158
4426,751.18,0.157
4427,751.26,0.155
4428,751.35,0.154
4429,751.43,0.153
4430,751.52,0.151
4431,751.60,0.150
4432,751.68,0.149
4433,751.77,0.148
4434,751.85,0.146
4435,751.93,0.145
4436,752.02,0.144
4437,752.10,0.143
4438,752.18,0.141
4439,752.27,0.140
4440,752.35,0.139
4441,752.43,0.137
4442,752.52,0.136
4443,752.61,0.135
4444,752.68,0.134
4445,752.76,0.132
4446,752.85,0.131
4447,752.94,0.129
4448,753.01,0.128
4449,753.10,0.127
4450,753.19,0.125
4451,753.27,0.124
4452,753.35,0.123
4453,753.44,0.122
4454,753.52,0.121
4455,753.60,0.120
4456,753.68,0.119
4457,753.77,0.118
4458,753.86,0.117
4459,753.94,0.115
4460,754.01,0.114
4461,754.09,0.113
4462,754.19,0.112
4463,754.27,0.111
4464,754.35,0.110
4465,754.43,0.108
4466,754.51,0.107
4467,754.60,0.106
4468,754.68,0.104
4469,754.77,0.103
4470,754.85,0.102
4471,754.93,0.101
4472,755.01,0.100
4473,755.10,0.099
4474,755.18,0.098
4475,755.27,0.097
4476,755.35,0.096
4477,755.44,0.095
4478,755.52,0.094
4479,755.60,0.093
4480,755.68,0.092
4481,755.76,0.091
4482,755.85,0.089
4483,755.93,0.088
4484,756.02,0.087
4485,756.10,0.086
4486,756.19,0.085
4487,756.27,0.084
4488,756.35,0.083
4489,756.43,0.082
4490,756.52,0.081
4491,756.60,0.080
4492,756.68,0.079
4493,756.76,0.078
4494,756.85,0.077
4495,756.93,0.076
4496,757.01,0.075
4497,757.10,0.074
4498,757.18,0.073
4499,757.27,0.072
4500,757.35,0.071
4501,757.44,0.071
4502,757.52,0.070
4503,757.60,0.069
4504,757.68,0.068
4505,757.77,0.067
4506,757.85,0.067
4507,757.93,0.066
4508,758.02,0.065
4509,758.10,0.065
4510,758.19,0.064
4511,758.26,0.063
4512,758.34,0.063
4513,758.43,0.062
4514,758.52,0.062
4515,758.60,0.061
4516,758.68,0.060
4517,758.77,0.059
4518,758.85,0.059
4519,758.94,0.058
4520,759.02,0.057
4521,759.10,0.056
4522,759.19,0.055
4523,759.27,0.055
4524,759.35,0.054
4525,759.43,0.054
4526,759.51,0.053
4527,759.60,0.052
4528,759.69,0.052
4529,759.77,0.051
4530,759.85,0.051
4531,759.93,0.050
4532,760.02,0.050
4533,760.10,0.049
4534,760.19,0.049
4535,760.26,0.048
4536,760.35,0.048
4537,760.43,0.047
4538,760.52,0.047
4539,760.60,0.046
4540,760.68,0.046
4541,760.77,0.046
4542,760.85,0.045
4543,760.93,0.045
4544,761.02,0.044
4545,761.10,0.044
4546,761.19,0.044
4547,761.27,0.044
4548,761.35,0.043
4549,761.44,0.043
4550,761.51,0.043
4551,761.60,0.043
4552,761.69,0.042
4553,761.77,0.042
4554,761.85,0.042
4555,761.93,0.041
4556,762.02,0.041
4557,762.10,0.041
4558,762.18,0.040
4559,762.27,0.040
4560,762.35,0.040
4561,762.43,0.039
4562,762.52,0.039
4563,762.60,0.039
4564,762.68,0.039
4565,762.77,0.038
4566,762.85,0.038
4567,762.93,0.038
4568,763.02,0.037
4569,763.10,0.037
4570,763.19,0.037
4571,763.26,0.037
4572,763.35,0.036
4573,763.43,0.036
4574,763.52,0.036
4575,763.60,0.036
4576,763.68,0.035
4577,763.77,0.035
4578,763.85,0.035
4579,763.93,0.035
4580,764.01,0.035
4581,764.10,0.034
4582,764.19,0.034
4583,764.27,0.034
4584,764.35,0.034
4585,764.43,0.034
4586,764.52,0.033
4587,764.60,0.033
4588,764.68,0.033
4589,764.77,0.033
4590,764.85,0.033
4591,764.93,0.033
4592,765.01,0.032
4593,765.11,0.032
4594,765.18,0.032
4595,765.27,0.032
4596,765.35,0.032
4597,765.44,0.032
4598,765.52,0.032
4599,765.60,0.032
4600,765.68,0.031
4601,765.77,0.031
4602,765.85,0.031
4603,765.94,0.031
4604,766.02,0.031
4605,766.09,0.031
4606,766.18,0.031
4607,766.27,0.031
4608,766.36,0.031
4609,766.43,0.030
4610,766.51,0.030
4611,766.60,0.030
4612,766.69,0.030
4613,766.77,0.030
4614,766.85,0.030
4615,766.93,0.030
4616,767.02,0.030
4617,767.10,0.030
4618,767.19,0.030
4619,767.27,0.030
4620,767.35,0.030
4621,767.44,0.029
4622,767.52,0.029
4623,767.60,0.029
4624,767.68,0.029
4625,767.77,0.029
4626,767.85,0.029
4627,767.94,0.029
4628,768.02,0.029
4629,768.10,0.029
4630,768.18,0.029
4631,768.27,0.029
4632,768.35,0.029
4633,768.44,0.029
4634,768.52,0.029
4635,768.60,0.029
4636,768.68,0.029
4637,768.76,0.029
4638,768.85,0.029
4639,768.94,0.029
4640,769.02,0.029
4641,769.10,0.029
4642,769.18,0.029
4643,769.27,0.029
4644,769.35,0.029
4645,769.43,0.029
4646,769.52,0.029
4647,769.60,0.029
4648,769.68,0.029
4649,769.77,0.029
4650,769.85,0.028
4651,769.93,0.028
4652,770.02,0.028
4653,770.10,0.028
4654,770.18,0.028
4655,770.27,0.028
4656,770.35,0.028
4657,770.43,0.028
4658,770.51,0.028
4659,770.60,0.028
4660,770.69,0.028
4661,770.76,0.028
4662,770.85,0.028
4663,770.94,0.028
4664,771.01,0.028
4665,771.10,0.028
4666,771.19,0.028
4667,771.27,0.028
4668,771.34,0.028
4669,771.43,0.028
4670,771.52,0.028
4671,771.61,0.028
4672,771.69,0.028
4673,771.77,0.028
4674,771.84,0.028
4675,771.93,0.028
4676,772.02,0.028
4677,772.11,0.028
4678,772.19,0.028
4679,772.27,0.028
4680,772.35,0.028
4681,772.44,0.028
4682,772.52,0.028
4683,772.60,0.028
4684,772.69,0.028
4685,772.77,0.028
4686,772.85,0.028
4687,772.93,0.028
4688,773.01,0.028
4689,773.10,0.028
4690,773.18,0.028
4691,773.27,0.028
4692,773.35,0.028
4693,773.43,0.028
4694,773.51,0.028
4695,773.60,0.028
4696,773.68,0.028
4697,773.76,0.028
4698,773.85,0.028
4699,773.94,0.028
4700,774.02,0.028
4701,774.10,0.028
4702,774.19,0.028
4703,774.27,0.028
4704,774.35,0.028
4705,774.44,0.028
4706,774.52,0.028
4707,774.60,0.028
4708,774.68,0.028
4709,774.77,0.028
4710,774.86,0.028
4711,774.94,0.028
4712,775.02,0.028
4713,775.10,0.028
4714,775.19,0.028
4715,775.27,0.028
4716,775.35,0.028
4717,775.43,0.028
4718,775.52,0.028
4719,775.60,0.028
4720,775.69,0.028
4721,775.76,0.028
4722,775.85,0.028
4723,775.94,0.028
4724,776.02,0.028
4725,776.10,0.028
4726,776.18,0.028
4727,776.27,0.028
4728,776.35,0.027
4729,776.44,0.027
4730,776.52,0.027
4731,776.60,0.027
4732,776.69,0.027
4733,776.77,0.027
4734,776.85,0.027
4735,776.93,0.027
4736,777.01,0.027
4737,777.10,0.027
4738,777.18,0.027
4739,777.27,0.027
4740,777.35,0.027
4741,777.43,0.027
4742,777.52,0.027
4743,777.60,0.027
4744,777.69,0.027
4745,777.77,0.027
4746,777.85,0.027
4747,777.93,0.027
4748,778.02,0.027
4749,778.10,0.027
4750,778.19,0.027
4751,778.27,0.027
4752,778.35,0.027
4753,778.43,0.027
4754,778.51,0.027
4755,778.60,0.027
4756,778.69,0.027
4757,778.76,0.027
4758,778.85,0.027
4759,778.93,0.027
4760,779.02,0.027
4761,779.10,0.027
4762,779.19,0.027
4763,779.27,0.027
4764,779.35,0.027
4765,779.44,0.027
4766,779.52,0.027
4767,779.60,0.027
4768,779.68,0.027
4769,779.77,0.027
4770,779.86,0.027
4771,779.94,0.027
4772,780.02,0.027
4773,780.10,0.027
4774,780.18,0.027
4775,780.27,0.027
4776,780.35,0.027
4777,780.44,0.027
4778,780.52,0.027
4779,780.60,0.027
4780,780.68,0.027
4781,780.77,0.027
4782,780.86,0.027
4783,780.94,0.027
4784,781.02,0.027
4785,781.09,0.027
4786,781.18,0.027
4787,781.27,0.027
4788,781.35,0.027
4789,781.43,0.027
4790,781.52,0.027
4791,781.60,0.027
4792,781.68,0.027
4793,781.76,0.027
4794,781.85,0.027
4795,781.94,0.027
4796,782.01,0.027
4797,782.10,0.027
4798,782.18,0.027
4799,782.26,0.027
4800,782.35,0.027
4801,782.44,0.027
4802,782.52,0.027
4803,782.60,0.027
4804,782.69,0.027
4805,782.77,0.027
4806,782.85,0.027
4807,782.94,0.027
4808,783.02,0.027
4809,783.10,0.027
4810,783.18,0.027
4811,783.27,0.027
4812,783.35,0.027
4813,783.43,0.027
4814,783.52,0.027
4815,783.60,0.027
4816,783.68,0.027
4817,783.76,0.027
4818,783.85,0.027
4819,783.94,0.027
4820,784.02,0.027
4821,784.10,0.027
4822,784.19,0.027
4823,784.27,0.027
4824,784.35,0.027
4825,784.44,0.027
4826,784.52,0.027
4827,784.60,0.027
4828,784.69,0.027
4829,784.77,0.027
4830,784.85,0.027
4831,784.94,0.027
4832,785.02,0.027
4833,785.10,0.027
4834,785.18,0.027
4835,785.26,0.027
4836,785.35,0.027
4837,785.43,0.027
4838,785.51,0.027
4839,785.60,0.027
4840,785.68,0.027
4841,785.77,0.027
4842,785.85,0.026
4843,785.94,0.026
4844,786.02,0.026
4845,786.10,0.026
4846,786.18,0.026
4847,786.27,0.026
4848,786.35,0.026
4849,786.43,0.026
4850,786.51,0.026
4851,786.60,0.026
4852,786.69,0.026
4853,786.77,0.026
4854,786.85,0.026
4855,786.94,0.026
4856,787.02,0.026
4857,787.10,0.026
4858,787.19,0.026
4859,787.27,0.026
4860,787.35,0.026
4861,787.43,0.026
4862,787.52,0.026
4863,787.60,0.026
4864,787.69,0.026
4865,787.77,0.026
4866,787.85,0.026
4867,787.93,0.026
4868,788.02,0.026
4869,788.10,0.026
4870,788.18,0.026
4871,788.27,0.026
4872,788.35,0.026
4873,788.43,0.026
4874,788.52,0.026
4875,788.60,0.026
4876,788.69,0.026
4877,788.77,0.026
4878,788.85,0.026
4879,788.93,0.026
4880,789.02,0.026
4881,789.10,0.026
4882,789.18,0.026
4883,789.27,0.026
4884,789.35,0.026
4885,789.43,0.026
4886,789.51,0.026
4887,789.60,0.026
4888,789.68,0.026
4889,789.77,0.026
4890,789.85,0.026
4891,789.93,0.026
4892,790.02,0.026
4893,790.10,0.026
4894,790.18,0.026
4895,790.27,0.026
4896,790.35,0.026
4897,790.43,0.026
4898,790.52,0.026
4899,790.60,0.026
4900,790.68,0.026
4901,790.77,0.026
4902,790.85,0.026
4903,790.94,0.026
4904,791.02,0.026
4905,791.10,0.026
4906,791.18,0.026
4907,791.27,0.026
4908,791.36,0.026
4909,791.43,0.026
4910,791.51,0.026
4911,791.60,0.026
4912,791.69,0.026
4913,791.77,0.026
4914,791.85,0.026
4915,791.93,0.026
4916,792.02,0.026
4917,792.11,0.026
4918,792.18,0.026
4919,792.27,0.026
4920,792.35,0.026
4921,792.43,0.026
4922,792.52,0.026
4923,792.60,0.026
4924,792.68,0.026
4925,792.77,0.026
4926,792.86,0.026
4927,792.93,0.026
4928,793.02,0.026
4929,793.10,0.026
4930,793.18,0.026
4931,793.27,0.026
4932,793.35,0.026
4933,793.43,0.026
4934,793.52,0.026
4935,793.60,0.026
4936,793.68,0.026
4937,793.76,0.026
4938,793.85,0.026
4939,793.94,0.026
4940,794.02,0.026
4941,794.10,0.026
4942,794.18,0.026
4943,794.26,0.026
4944,794.35,0.026
4945,794.43,0.026
4946,794.52,0.026
4947,794.61,0.026
4948,794.68,0.026
4949,794.76,0.026
4950,794.85,0.026
4951,794.94,0.026
4952,795.02,0.026
4953,795.10,0.026
4954,795.18,0.026
4955,795.27,0.026
4956,795.36,0.026
4957,795.44,0.026
4958,795.52,0.026
4959,795.60,0.026
4960,795.68,0.026
4961,795.77,0.026
4962,795.85,0.026
4963,795.94,0.026
4964,796.02,0.026
4965,796.10,0.026
4966,796.18,0.026
4967,796.27,0.026
4968,796.35,0.026
4969,796.43,0.026
4970,796.52,0.026
4971,796.60,0.025
4972,796.69,0.025
4973,796.77,0.025
4974,796.85,0.025
4975,796.94,0.025
4976,797.02,0.025
4977,797.10,0.025
4978,797.18,0.025
4979,797.26,0.025
4980,797.35,0.025
4981,797.44,0.025
4982,797.52,0.025
4983,797.60,0.025
4984,797.68,0.025
4985,797.77,0.025
4986,797.85,0.025
4987,797.94,0.025
4988,798.02,0.025
4989,798.11,0.025
4990,798.19,0.025
4991,798.27,0.025
4992,798.35,0.025
4993,798.43,0.025
4994,798.52,0.025
4995,798.60,0.025
4996,798.68,0.025
4997,798.77,0.025
4998,798.85,0.025
4999,798.93,0.025
5000,799.02,0.025
5001,799.10,0.025
5002,799.18,0.025
5003,799.27,0.025
5004,799.35,0.025
5005,799.43,0.025
5006,799.52,0.025
5007,799.61,0.025
5008,799.69,0.025
5009,799.76,0.025
5010,799.85,0.025
5011,799.94,0.025
5012,800.02,0.025
5013,800.10,0.025
5014,800.18,0.025
5015,800.27,0.025
5016,800.35,0.025
5017,800.43,0.025
5018,800.52,0.025
5019,800.60,0.025
5020,800.69,0.025
5021,800.77,0.025
5022,800.85,0.025
5023,800.93,0.025
5024,801.01,0.025
5025,801.10,0.025
5026,801.19,0.025
5027,801.27,0.025
5028,801.35,0.025
5029,801.44,0.025
5030,801.52,0.025
5031,801.60,0.025
5032,801.68,0.025
5033,801.77,0.025
5034,801.85,0.025
5035,801.93,0.025
5036,802.01,0.025
5037,802.10,0.025
5038,802.19,0.025
5039,802.26,0.025
5040,802.35,0.025
5041,802.44,0.025
5042,802.52,0.025
5043,802.60,0.025
5044,802.69,0.025
5045,802.77,0.025
5046,802.85,0.025
5047,802.94,0.025
5048,803.02,0.025
5049,803.10,0.025
5050,803.19,0.025
5051,803.27,0.025
5052,803.35,0.025
5053,803.44,0.025
5054,803.52,0.025
5055,803.60,0.025
5056,803.69,0.025
5057,803.77,0.025
5058,803.85,0.025
5059,803.94,0.025
5060,804.02,0.025
5061,804.10,0.025
5062,804.19,0.025
5063,804.27,0.025
5064,804.35,0.025
5065,804.44,0.025
5066,804.52,0.025
5067,804.60,0.025
5068,804.68,0.025
5069,804.77,0.025
5070,804.85,0.025
5071,804.94,0.025
5072,805.02,0.025
5073,805.10,0.025
5074,805.18,0.025
5075,805.27,0.025
5076,805.35,0.025
5077,805.43,0.025
5078,805.51,0.025
5079,805.60,0.025
5080,805.69,0.025
5081,805.77,0.025
5082,805.86,0.025
5083,805.94,0.025
5084,806.01,0.025
5085,806.10,0.025
5086,806.18,0.025
5087,806.27,0.025
5088,806.35,0.025
5089,806.43,0.025
5090,806.52,0.025
5091,806.61,0.025
5092,806.68,0.025
5093,806.76,0.025
5094,806.86,0.025
5095,806.94,0.025
5096,807.02,0.025
5097,807.10,0.025
5098,807.18,0.025
5099,807.27,0.025
5100,807.35,0.025
5101,807.43,0.025
5102,807.52,0.025
5103,807.61,0.025
5104,807.68,0.025
5105,807.77,0.025
5106,807.86,0.025
5107,807.94,0.025
5108,808.02,0.025
5109,808.11,0.025
5110,808.18,0.025
5111,808.26,0.025
5112,808.35,0.025
5113,808.44,0.025
5114,808.52,0.025
5115,808.60,0.025
5116,808.68,0.025
5117,808.77,0.025
5118,808.86,0.025
5119,808.93,0.025
5120,809.01,0.025
5121,809.10,0.025
5122,809.18,0.025
5123,809.27,0.025
5124,809.35,0.025
5125,809.44,0.025
5126,809.52,0.025
5127,809.60,0.025
5128,809.68,0.025
5129,809.77,0.025
5130,809.85,0.025
5131,809.93,0.025
5132,810.02,0.025
5133,810.10,0.025
5134,810.19,0.025
5135,810.27,0.025
5136,810.35,0.025
5137,810.43,0.025
5138,810.52,0.025
5139,810.60,0.025
5140,810.68,0.025
5141,810.77,0.025
5142,810.85,0.025
5143,810.94,0.025
5144,811.02,0.025
5145,811.10,0.025
5146,811.19,0.025
5147,811.27,0.025
5148,811.35,0.025
5149,811.43,0.025
5150,811.52,0.025
5151,811.61,0.025
5152,811.68,0.025
5153,811.77,0.025
5154,811.86,0.025
5155,811.94,0.025
5156,812.02,0.025
5157,812.10,0.025
5158,812.19,0.025
5159,812.27,0.025
5160,812.35,0.025
5161,812.44,0.025
5162,812.52,0.025
5163,812.60,0.025
5164,812.68,0.025
5165,812.77,0.025
5166,812.86,0.025
5167,812.94,0.025
5168,813.02,0.025
5169,813.10,0.025
5170,813.18,0.025
5171,813.27,0.025
5172,813.35,0.025
5173,813.43,0.025
5174,813.51,0.025
5175,813.60,0.025
5176,813.69,0.025
5177,813.77,0.025
5178,813.85,0.025
5179,813.93,0.025
5180,814.02,0.025
5181,814.10,0.025
5182,814.18,0.025
5183,814.27,0.025
5184,814.36,0.025
5185,814.43,0.025
5186,814.52,0.025
5187,814.61,0.025
5188,814.68,0.025
5189,814.77,0.025
5190,814.86,0.025
5191,814.93,0.025
5192,815.02,0.025
5193,815.11,0.025
5194,815.18,0.025
5195,815.27,0.025
5196,815.36,0.025
5197,815.44,0.025
5198,815.52,0.025
5199,815.60,0.025
5200,815.69,0.025
5201,815.77,0.025
5202,815.85,0.025
5203,815.94,0.025
5204,816.02,0.025
5205,816.10,0.025
5206,816.18,0.025
5207,816.26,0.025
5208,816.35,0.025
5209,816.44,0.025
5210,816.52,0.025
5211,816.60,0.025
5212,816.68,0.025
5213,816.77,0.025
5214,816.86,0.025
5215,816.93,0.025
5216,817.01,0.025
5217,817.10,0.025
5218,817.19,0.025
5219,817.27,0.025
5220,817.35,0.025
5221,817.43,0.025
5222,817.52,0.025
5223,817.60,0.025
5224,817.68,0.025
5225,817.77,0.025
5226,817.85,0.025
5227,817.94,0.025
5228,818.02,0.025
5229,818.10,0.025
5230,818.19,0.025
5231,818.27,0.025
5232,818.35,0.025
5233,818.44,0.025
5234,818.52,0.025
5235,818.60,0.025
5236,818.69,0.025
5237,818.77,0.025
5238,818.85,0.025
5239,818.94,0.025
5240,819.02,0.025
5241,819.10,0.025
5242,819.19,0.025
5243,819.27,0.025
5244,819.35,0.025
5245,819.44,0.025
5246,819.52,0.025
5247,819.60,0.025
5248,819.69,0.025
5249,819.77,0.025
5250,819.85,0.025
5251,819.94,0.025
5252,820.02,0.025
5253,820.10,0.025
5254,820.19,0.025
5255,820.27,0.025
5256,820.35,0.025
5257,820.44,0.025
5258,820.52,0.025
5259,820.60,0.025
5260,820.68,0.025
5261,820.77,0.025
5262,820.85,0.025
5263,820.93,0.025
5264,821.02,0.025
5265,821.10,0.025
5266,821.18,0.025
5267,821.27,0.025
5268,821.35,0.025
5269,821.44,0.025
5270,821.52,0.025
5271,821.60,0.025
5272,821.69,0.025
5273,821.77,0.025
5274,821.85,0.025
5275,821.93,0.025
5276,822.02,0.025
5277,822.10,0.025
5278,822.18,0.025
5279,822.27,0.025
5280,822.35,0.025
5281,822.44,0.025
5282,822.52,0.025
5283,822.60,0.025
5284,822.68,0.025
5285,822.77,0.025
5286,822.86,0.025
5287,822.93,0.025
5288,823.02,0.025
5289,823.10,0.025
5290,823.18,0.025
5291,823.27,0.025
5292,823.36,0.025
5293,823.44,0.025
5294,823.52,0.025
5295,823.61,0.025
5296,823.69,0.025
5297,823.77,0.025
5298,823.85,0.025
5299,823.94,0.025
5300,824.02,0.025
5301,824.10,0.025
5302,824.19,0.025
5303,824.27,0.025
5304,824.36,0.025
5305,824.44,0.025
5306,824.52,0.025
5307,824.60,0.025
5308,824.69,0.025
5309,824.77,0.025
5310,824.85,0.025
5311,824.94,0.025
5312,825.02,0.025
5313,825.10,0.025
5314,825.18,0.025
5315,825.27,0.025
5316,825.36,0.025
5317,825.44,0.025
5318,825.51,0.025
5319,825.61,0.025
5320,825.69,0.025
5321,825.77,0.025
5322,825.85,0.025
5323,825.93,0.025
5324,826.02,0.025
5325,826.11,0.025
5326,826.19,0.025
5327,826.27,0.025
5328,826.35,0.025
5329,826.44,0.025
5330,826.52,0.025
5331,826.60,0.025
5332,826.68,0.025
5333,826.77,0.025
5334,826.85,0.025
5335,826.94,0.025
5336,827.02,0.025
5337,827.10,0.025
5338,827.19,0.025
5339,827.27,0.025
5340,827.35,0.025
5341,827.44,0.025
5342,827.52,0.025
5343,827.60,0.025
5344,827.69,0.025
5345,827.77,0.025
5346,827.85,0.025
5347,827.94,0.025
5348,828.02,0.025
5349,828.11,0.025
5350,828.18,0.025
5351,828.27,0.025
5352,828.35,0.025
5353,828.44,0.025
5354,828.52,0.025
5355,828.60,0.025
5356,828.68,0.025
5357,828.77,0.025
5358,828.85,0.025
5359,828.94,0.025
5360,829.03,0.025
5361,829.10,0.025
5362,829.19,0.025
5363,829.26,0.025
5364,829.35,0.025
5365,829.44,0.025
5366,829.52,0.025
5367,829.60,0.025
5368,829.69,0.025
5369,829.77,0.025
5370,829.85,0.025
5371,829.94,0.025
5372,830.02,0.025
5373,830.10,0.025
5374,830.19,0.025
5375,830.27,0.025
5376,830.35,0.025
5377,830.44,0.025
5378,830.52,0.025
5379,830.60,0.025
5380,830.69,0.025
5381,830.77,0.025
5382,830.85,0.025
5383,830.94,0.025
5384,831.02,0.025
5385,831.10,0.025
5386,831.19,0.025
5387,831.27,0.025
5388,831.36,0.025
5389,831.43,0.025
5390,831.52,0.025
5391,831.60,0.025
5392,831.69,0.025
5393,831.77,0.025
5394,831.85,0.025
5395,831.94,0.025
5396,832.02,0.025
5397,832.11,0.025
5398,832.18,0.025
5399,832.26,0.025
5400,832.35,0.025
5401,832.43,0.025
5402,832.52,0.025
5403,832.60,0.025
5404,832.68,0.025
5405,832.76,0.025
5406,832.85,0.025
5407,832.93,0.025
5408,833.02,0.025
5409,833.10,0.025
5410,833.18,0.025
5411,833.27,0.025
5412,833.35,0.025
5413,833.44,0.025
5414,833.52,0.025
5415,833.60,0.025
5416,833.69,0.025
5417,833.77,0.025
5418,833.86,0.025
5419,833.93,0.025
5420,834.02,0.025
5421,834.11,0.025
5422,834.19,0.025
5423,834.27,0.025
5424,834.36,0.025
5425,834.44,0.025
5426,834.52,0.025
5427,834.60,0.025
5428,834.69,0.025
5429,834.77,0.025
5430,834.85,0.025
5431,834.94,0.025
5432,835.02,0.025
5433,835.10,0.025
5434,835.19,0.025
5435,835.27,0.025
5436,835.35,0.025
5437,835.43,0.025
5438,835.52,0.025
5439,835.61,0.025
5440,835.69,0.025
5441,835.77,0.025
5442,835.85,0.025
5443,835.94,0.025
5444,836.02,0.025
5445,836.11,0.025
5446,836.19,0.025
5447,836.26,0.025
5448,836.35,0.025
5449,836.44,0.025
5450,836.52,0.025
5451,836.60,0.025
5452,836.68,0.025
5453,836.77,0.025
5454,836.86,0.025
5455,836.94,0.025
5456,837.02,0.025
5457,837.10,0.025
5458,837.19,0.025
5459,837.27,0.025
5460,837.35,0.025
5461,837.43,0.025
5462,837.52,0.025
5463,837.61,0.025
5464,837.69,0.025
5465,837.77,0.025
5466,837.85,0.025
5467,837.94,0.025
5468,838.02,0.025
5469,838.10,0.025
5470,838.19,0.025
5471,838.28,0.025
5472,838.35,0.025
5473,838.43,0.025
5474,838.52,0.025
5475,838.60,0.025
5476,838.69,0.025
5477,838.77,0.025
5478,838.85,0.025
5479,838.93,0.025
5480,839.02,0.025
5481,839.10,0.025
5482,839.19,0.025
5483,839.27,0.025
5484,839.35,0.025
5485,839.43,0.025
5486,839.52,0.025
5487,839.61,0.025
5488,839.69,0.025
5489,839.77,0.025
5490,839.85,0.025
5491,839.93,0.025
5492,840.02,0.025
5493,840.11,0.025
5494,840.19,0.025
5495,840.27,0.025
5496,840.35,0.025
5497,840.43,0.025
5498,840.52,0.025
5499,840.61,0.025
5500,840.69,0.025
5501,840.77,0.025
5502,840.85,0.025
5503,840.94,0.025
5504,841.02,0.025
5505,841.10,0.025
5506,841.18,0.025
5507,841.27,0.025
5508,841.35,0.025
5509,841.44,0.025
5510,841.52,0.025
5511,841.60,0.025
5512,841.68,0.025
5513,841.77,0.025
5514,841.85,0.025
5515,841.93,0.025
5516,842.02,0.025
5517,842.11,0.025
5518,842.19,0.025
5519,842.27,0.025
5520,842.36,0.025
5521,842.44,0.025
5522,842.52,0.025
5523,842.61,0.025
5524,842.69,0.025
5525,842.77,0.025
5526,842.85,0.025
5527,842.94,0.025
5528,843.02,0.025
5529,843.11,0.025
5530,843.19,0.025
5531,843.27,0.025
5532,843.35,0.025
5533,843.43,0.025
5534,843.52,0.025
5535,843.60,0.025
5536,843.69,0.025
5537,843.77,0.025
5538,843.86,0.025
5539,843.94,0.025
5540,844.02,0.025
5541,844.10,0.025
5542,844.18,0.025
5543,844.27,0.025
5544,844.35,0.025
5545,844.44,0.025
5546,844.52,0.025
5547,844.60,0.025
5548,844.68,0.025
5549,844.77,0.025
5550,844.86,0.025
5551,844.95,0.025
5552,845.02,0.025
5553,845.10,0.025
5554,845.19,0.025
5555,845.27,0.025
5556,845.35,0.025
5557,845.43,0.025
5558,845.52,0.025
5559,845.61,0.025
5560,845.69,0.025
5561,845.77,0.025
5562,845.85,0.025
5563,845.94,0.025
5564,846.02,0.025
5565,846.10,0.025
5566,846.19,0.025
5567,846.27,0.025
5568,846.35,0.025
5569,846.44,0.025
5570,846.52,0.025
5571,846.60,0.025
5572,846.69,0.025
5573,846.77,0.025
5574,846.85,0.025
5575,846.94,0.025
5576,847.02,0.025
5577,847.11,0.025
5578,847.19,0.025
5579,847.27,0.025
5580,847.35,0.025
5581,847.44,0.025
5582,847.52,0.025
5583,847.60,0.025
5584,847.69,0.025
5585,847.76,0.025
5586,847.85,0.025
5587,847.93,0.025
5588,848.02,0.025
5589,848.10,0.025
5590,848.18,0.025
5591,848.27,0.025
5592,848.36,0.025
5593,848.43,0.025
5594,848.52,0.025
5595,848.61,0.025
5596,848.68,0.025
5597,848.77,0.025
5598,848.86,0.025
5599,848.94,0.025
5600,849.02,0.025
5601,849.11,0.025
5602,849.19,0.025
5603,849.27,0.025
5604,849.36,0.025
5605,849.44,0.025
5606,849.52,0.025
5607,849.61,0.025
5608,849.69,0.025
5609,849.77,0.025
5610,849.86,0.025
5611,849.94,0.025
5612,850.02,0.025
5613,850.11,0.025
5614,850.19,0.025
5615,850.27,0.025
5616,850.36,0.025
5617,850.44,0.025
5618,850.53,0.025
5619,850.60,0.025
5620,850.68,0.025
5621,850.77,0.025
5622,850.85,0.025
5623,850.94,0.025
5624,851.02,0.025
5625,851.10,0.025
5626,851.18,0.025
5627,851.27,0.025
5628,851.36,0.025
5629,851.43,0.025
5630,851.52,0.025
5631,851.61,0.025
5632,851.69,0.025
5633,851.77,0.025
5634,851.85,0.025
5635,851.94,0.025
5636,852.02,0.025
5637,852.10,0.025
5638,852.19,0.025
5639,852.27,0.025
5640,852.35,0.025
5641,852.44,0.025
5642,852.52,0.025
5643,852.60,0.025
5644,852.69,0.025
5645,852.77,0.025
5646,852.86,0.025
5647,852.94,0.025
5648,853.02,0.025
5649,853.10,0.025
5650,853.19,0.025
5651,853.27,0.025
5652,853.36,0.025
5653,853.44,0.025
5654,853.53,0.025
5655,853.60,0.025
5656,853.68,0.025
5657,853.77,0.025
5658,853.86,0.025
5659,853.94,0.025
5660,854.02,0.025
5661,854.10,0.025
5662,854.18,0.025
5663,854.27,0.025
5664,854.35,0.025
5665,854.44,0.025
5666,854.52,0.025
5667,854.60,0.025
5668,854.68,0.025
5669,854.77,0.025
5670,854.85,0.025
5671,854.93,0.025
5672,855.02,0.025
5673,855.10,0.025
5674,855.19,0.025
5675,855.28,0.025
5676,855.36,0.025
5677,855.43,0.025
5678,855.52,0.025
5679,855.60,0.025
5680,855.69,0.025
5681,855.77,0.025
5682,855.86,0.024
5683,855.94,0.024
5684,856.02,0.024
5685,856.11,0.024
5686,856.19,0.024
5687,856.27,0.024
5688,856.36,0.024
5689,856.44,0.024
5690,856.52,0.024
5691,856.61,0.024
5692,856.69,0.024
5693,856.77,0.024
5694,856.85,0.024
5695,856.94,0.024
5696,857.02,0.024
5697,857.11,0.024
5698,857.19,0.024
5699,857.27,0.024
5700,857.35,0.024
5701,857.44,0.024
5702,857.52,0.024
5703,857.61,0.024
5704,857.69,0.024
5705,857.77,0.024
5706,857.85,0.024
5707,857.93,0.024
5708,858.02,0.024
5709,858.10,0.024
5710,858.19,0.024
5711,858.27,0.024
5712,858.36,0.024
5713,858.44,0.024
5714,858.52,0.024
5715,858.60,0.024
5716,858.69,0.024
5717,858.77,0.024
5718,858.85,0.024
5719,858.94,0.024
5720,859.02,0.024
5721,859.10,0.024
5722,859.19,0.024
5723,859.27,0.024
5724,859.36,0.024
5725,859.44,0.024
5726,859.52,0.024
5727,859.61,0.024
5728,859.69,0.024
5729,859.77,0.024
5730,859.85,0.024
5731,859.94,0.024
5732,860.02,0.024
5733,860.10,0.024
5734,860.19,0.024
5735,860.27,0.024
5736,860.36,0.024
5737,860.44,0.024
5738,860.52,0.024
5739,860.61,0.024
5740,860.68,0.024
5741,860.76,0.024
5742,860.85,0.024
5743,860.94,0.024
5744,861.03,0.024
5745,861.10,0.024
5746,861.19,0.024
5747,861.27,0.024
5748,861.36,0.024
5749,861.44,0.024
5750,861.52,0.024
5751,861.60,0.024
5752,861.69,0.024
5753,861.77,0.024
5754,861.85,0.024
5755,861.93,0.024
5756,862.01,0.024
5757,862.11,0.024
5758,862.19,0.024
5759,862.27,0.024
5760,862.36,0.024
5761,862.43,0.024
5762,862.52,0.024
5763,862.61,0.024
5764,862.68,0.024
5765,862.77,0.024
5766,862.85,0.024
5767,862.94,0.024
5768,863.02,0.024
5769,863.11,0.024
5770,863.19,0.024
5771,863.27,0.024
5772,863.36,0.024
5773,863.44,0.024
5774,863.52,0.024
5775,863.61,0.024
5776,863.69,0.024
5777,863.77,0.024
5778,863.85,0.024
5779,863.94,0.024
5780,864.02,0.024
5781,864.10,0.024
5782,864.19,0.024
5783,864.28,0.024
5784,864.36,0.024
5785,864.44,0.024
5786,864.52,0.024
5787,864.61,0.024
5788,864.69,0.024
5789,864.77,0.024
5790,864.85,0.024
5791,864.94,0.024
5792,865.02,0.024
5793,865.11,0.024
5794,865.19,0.024
5795,865.27,0.024
5796,865.35,0.024
5797,865.43,0.024
5798,865.52,0.024
5799,865.61,0.024
5800,865.69,0.024
5801,865.77,0.024
5802,865.85,0.024
5803,865.94,0.024
5804,866.03,0.024
5805,866.10,0.024
5806,866.18,0.024
5807,866.27,0.024
5808,866.35,0.024
5809,866.43,0.024
5810,866.52,0.024
5811,866.60,0.024
5812,866.69,0.024
5813,866.77,0.024
5814,866.85,0.024
5815,866.94,0.024
5816,867.02,0.024
5817,867.10,0.024
5818,867.19,0.024
5819,867.27,0.024
5820,867.35,0.024
5821,867.44,0.024
5822,867.52,0.024
5823,867.60,0.024
5824,867.69,0.024
5825,867.77,0.024
5826,867.85,0.024
5827,867.94,0.024
5828,868.03,0.024
5829,868.10,0.024
5830,868.19,0.024
5831,868.27,0.024
5832,868.35,0.024
5833,868.44,0.024
5834,868.53,0.024
5835,868.61,0.024
5836,868.69,0.024
5837,868.77,0.024
5838,868.85,0.024
5839,868.93,0.024
5840,869.02,0.024
5841,869.10,0.024
5842,869.19,0.024
5843,869.27,0.024
5844,869.35,0.024
5845,869.44,0.024
5846,869.52,0.024
5847,869.60,0.024
5848,869.69,0.024
5849,869.77,0.024
5850,869.85,0.024
5851,869.94,0.024
5852,870.02,0.024
5853,870.10,0.024
5854,870.19,0.024
5855,870.27,0.024
5856,870.36,0.024
5857,870.44,0.024
5858,870.52,0.024
5859,870.60,0.024
5860,870.69,0.024
5861,870.77,0.024
5862,870.86,0.024
5863,870.94,0.024
5864,871.02,0.024
5865,871.10,0.024
5866,871.19,0.024
5867,871.28,0.024
5868,871.35,0.024
5869,871.44,0.024
5870,871.52,0.024
5871,871.61,0.024
5872,871.69,0.024
5873,871.77,0.024
5874,871.86,0.024
5875,871.94,0.024
5876,872.02,0.024
5877,872.11,0.024
5878,872.19,0.024
5879,872.27,0.024
5880,872.35,0.024
5881,872.44,0.024
5882,872.52,0.024
5883,872.60,0.024
5884,872.68,0.024
5885,872.77,0.024
5886,872.85,0.024
5887,872.93,0.024
5888,873.02,0.024
5889,873.10,0.024
5890,873.19,0.024
5891,873.27,0.024
5892,873.36,0.024
5893,873.44,0.024
5894,873.52,0.024
5895,873.60,0.024
5896,873.69,0.024
5897,873.77,0.024
5898,873.86,0.024
5899,873.94,0.024
5900,874.02,0.024
5901,874.11,0.024
5902,874.19,0.024
5903,874.27,0.024
5904,874.36,0.024
5905,874.44,0.024
5906,874.52,0.024
5907,874.61,0.024
5908,874.69,0.024
5909,874.77,0.024
5910,874.85,0.024
5911,874.93,0.024
5912,875.02,0.024
5913,875.11,0.024
5914,875.19,0.024
5915,875.27,0.024
5916,875.36,0.024
5917,875.44,0.024
5918,875.52,0.024
5919,875.60,0.024
5920,875.68,0.024
5921,875.77,0.024
5922,875.86,0.024
5923,875.94,0.024
5924,876.02,0.024
5925,876.10,0.024
5926,876.18,0.024
5927,876.27,0.024
5928,876.36,0.024
5929,876.44,0.024
5930,876.52,0.024
5931,876.60,0.024
5932,876.69,0.024
5933,876.77,0.024
5934,876.85,0.024
5935,876.94,0.024
5936,877.03,0.024
5937,877.10,0.024
5938,877.19,0.024
5939,877.27,0.024
5940,877.35,0.024
5941,877.44,0.024
5942,877.53,0.024
5943,877.60,0.024
5944,877.69,0.024
5945,877.78,0.024
5946,877.85,0.024
5947,877.94,0.024
5948,878.02,0.024
5949,878.11,0.024
5950,878.19,0.024
5951,878.27,0.024
5952,878.35,0.024
5953,878.44,0.024
5954,878.52,0.024
5955,878.61,0.024
5956,878.69,0.024
5957,878.78,0.024
5958,878.86,0.024
5959,878.94,0.024
5960,879.02,0.024
5961,879.10,0.024
5962,879.19,0.024
5963,879.27,0.024
5964,879.35,0.024
5965,879.44,0.024
5966,879.52,0.024
5967,879.60,0.024
5968,879.69,0.024
5969,879.77,0.024
5970,879.85,0.024
5971,879.94,0.024
5972,880.03,0.024
5973,880.10,0.024
5974,880.18,0.024
5975,880.27,0.024
5976,880.36,0.024
5977,880.44,0.024
5978,880.52,0.024
5979,880.61,0.024
5980,880.69,0.024
5981,880.77,0.024
5982,880.86,0.024
5983,880.94,0.024
5984,881.02,0.024
5985,881.11,0.024
5986,881.19,0.024
5987,881.27,0.024
5988,881.35,0.024
5989,881.44,0.024
5990,881.53,0.024
5991,881.61,0.024
5992,881.68,0.024
5993,881.77,0.024
5994,881.86,0.024
5995,881.95,0.024
5996,882.02,0.024
5997,882.10,0.024
5998,882.18,0.024
5999,882.27,0.024
6000,882.35,0.024
6001,882.44,0.024
6002,882.52,0.024
6003,882.61,0.024
6004,882.69,0.024
6005,882.77,0.024
6006,882.86,0.024
6007,882.94,0.024
6008,883.02,0.024
6009,883.10,0.024
6010,883.19,0.024
6011,883.27,0.024
6012,883.35,0.024
6013,883.44,0.024
6014,883.52,0.024
6015,883.61,0.024
6016,883.69,0.024
6017,883.77,0.024
6018,883.86,0.024
6019,883.94,0.024
6020,884.02,0.024
6021,884.11,0.024
6022,884.19,0.024
6023,884.27,0.024
6024,884.36,0.024
6025,884.44,0.024
6026,884.52,0.024
6027,884.61,0.024
6028,884.69,0.024
6029,884.78,0.024
6030,884.86,0.024
6031,884.94,0.024
6032,885.02,0.024
6033,885.11,0.024
6034,885.19,0.024
6035,885.28,0.024
6036,885.36,0.024
6037,885.44,0.024
6038,885.52,0.024
6039,885.60,0.024
6040,885.68,0.024
6041,885.77,0.024
6042,885.85,0.024
6043,885.93,0.024
6044,886.02,0.024
6045,886.11,0.024
6046,886.19,0.024
6047,886.27,0.024
6048,886.36,0.024
6049,886.44,0.024
6050,886.52,0.024
6051,886.60,0.024
6052,886.68,0.024
6053,886.77,0.024
6054,886.86,0.024
6055,886.94,0.024
6056,887.03,0.024
6057,887.10,0.024
6058,887.19,0.024
6059,887.28,0.024
6060,887.35,0.024
6061,887.44,0.024
6062,887.52,0.024
6063,887.60,0.024
6064,887.69,0.024
6065,887.78,0.024
6066,887.86,0.024
6067,887.93,0.024
6068,888.02,0.024
6069,888.11,0.024
6070,888.20,0.024
6071,888.27,0.024
6072,888.35,0.024
6073,888.44,0.024
6074,888.52,0.024
6075,888.61,0.024
6076,888.69,0.024
6077,888.78,0.024
6078,888.86,0.024
6079,888.94,0.024
6080,889.02,0.024
6081,889.10,0.024
6082,889.18,0.024
6083,889.27,0.024
6084,889.36,0.024
6085,889.44,0.024
6086,889.52,0.024
6087,889.60,0.024
6088,889.69,0.024
6089,889.77,0.024
6090,889.85,0.024
6091,889.94,0.024
6092,890.02,0.024
6093,890.11,0.024
6094,890.19,0.024
6095,890.27,0.024
6096,890.36,0.024
6097,890.44,0.024
6098,890.53,0.024
6099,890.61,0.024
6100,890.68,0.024
6101,890.77,0.024
6102,890.86,0.024
6103,890.94,0.024
6104,891.02,0.024
6105,891.10,0.024
6106,891.19,0.024
6107,891.28,0.024
6108,891.35,0.024
6109,891.44,0.024
6110,891.53,0.024
6111,891.61,0.024
6112,891.69,0.024
6113,891.77,0.024
6114,891.85,0.024
6115,891.94,0.024
6116,892.02,0.024
6117,892.11,0.024
6118,892.19,0.024
6119,892.27,0.024
6120,892.35,0.024
6121,892.44,0.024
6122,892.52,0.024
6123,892.60,0.024
6124,892.69,0.024
6125,892.77,0.024
6126,892.86,0.024
6127,892.94,0.024
6128,893.02,0.024
6129,893.11,0.024
6130,893.19,0.024
6131,893.27,0.024
6132,893.36,0.024
6133,893.44,0.024
6134,893.52,0.024
6135,893.61,0.024
6136,893.69,0.024
6137,893.77,0.024
6138,893.86,0.024
6139,893.94,0.024
6140,894.02,0.024
6141,894.10,0.024
6142,894.19,0.024
6143,894.27,0.024
6144,894.35,0.024
6145,894.44,0.024
6146,894.53,0.024
6147,894.61,0.024
6148,894.69,0.024
6149,894.77,0.024
6150,894.86,0.024
6151,894.94,0.024
6152,895.02,0.024
6153,895.11,0.024
6154,895.19,0.024
6155,895.27,0.024
6156,895.35,0.024
6157,895.44,0.024
6158,895.52,0.024
6159,895.61,0.024
6160,895.69,0.024
6161,895.77,0.024
6162,895.85,0.024
6163,895.94,0.024
6164,896.03,0.024
6165,896.11,0.024
6166,896.18,0.024
6167,896.27,0.024
6168,896.36,0.024
6169,896.44,0.024
6170,896.52,0.024
6171,896.61,0.024
6172,896.69,0.024
6173,896.77,0.024
6174,896.86,0.024
6175,896.94,0.024
6176,897.02,0.024
6177,897.10,0.024
6178,897.19,0.024
6179,897.27,0.024
6180,897.35,0.024
6181,897.44,0.024
6182,897.52,0.024
6183,897.60,0.024
6184,897.69,0.024
6185,897.77,0.024
6186,897.86,0.024
6187,897.94,0.024
6188,898.03,0.024
6189,898.11,0.024
6190,898.19,0.024
6191,898.27,0.024
6192,898.36,0.024
6193,898.44,0.024
6194,898.52,0.024
6195,898.61,0.024
6196,898.68,0.024
6197,898.77,0.024
6198,898.86,0.024
6199,898.94,0.024
6200,899.02,0.024
6201,899.10,0.024
6202,899.19,0.024
6203,899.27,0.024
6204,899.35,0.024
6205,899.44,0.024
6206,899.52,0.024
6207,899.61,0.024
6208,899.69,0.024
6209,899.77,0.024
6210,899.86,0.024
6211,899.94,0.024
6212,900.02,0.024
6213,900.11,0.024
6214,900.19,0.024
6215,900.28,0.024
6216,900.36,0.024
6217,900.44,0.024
6218,900.52,0.024
6219,900.61,0.024
6220,900.69,0.024
6221,900.78,0.024
6222,900.86,0.024
6223,900.94,0.024
6224,901.02,0.024
6225,901.11,0.024
6226,901.19,0.024
6227,901.27,0.024
6228,901.36,0.024
6229,901.44,0.024
6230,901.52,0.024
6231,901.60,0.024
6232,901.68,0.024
6233,901.77,0.024
6234,901.85,0.024
6235,901.94,0.024
6236,902.03,0.024
6237,902.11,0.024
6238,902.18,0.024
6239,902.27,0.024
6240,902.36,0.024
6241,902.43,0.024
6242,902.53,0.024
6243,902.61,0.024
6244,902.69,0.024
6245,902.77,0.024
6246,902.86,0.024
6247,902.94,0.024
6248,903.02,0.024
6249,903.11,0.024
6250,903.19,0.024
6251,903.27,0.024
6252,903.36,0.024
6253,903.44,0.024
6254,903.52,0.024
6255,903.61,0.024
6256,903.69,0.024
6257,903.77,0.024
6258,903.86,0.024
6259,903.94,0.024
6260,904.02,0.023
6261,904.11,0.023
6262,904.19,0.023
6263,904.27,0.023
6264,904.36,0.023
6265,904.44,0.023
6266,904.52,0.023
6267,904.61,0.023
6268,904.69,0.023
6269,904.78,0.023
6270,904.86,0.023
6271,904.94,0.023
6272,905.02,0.023
6273,905.10,0.023
6274,905.18,0.023
6275,905.27,0.023
6276,905.36,0.023
6277,905.44,0.023
6278,905.52,0.023
6279,905.60,0.023
6280,905.69,0.023
6281,905.77,0.023
6282,905.86,0.023
6283,905.94,0.023
6284,906.02,0.023
6285,906.10,0.023
6286,906.19,0.023
6287,906.27,0.023
6288,906.36,0.023
6289,906.44,0.023
6290,906.52,0.023
6291,906.60,0.023
6292,906.69,0.023
6293,906.77,0.023
6294,906.86,0.023
6295,906.94,0.023
6296,907.02,0.023
6297,907.11,0.023
6298,907.19,0.023
6299,907.28,0.023
6300,907.36,0.023
6301,907.44,0.023
6302,907.52,0.023
6303,907.61,0.023
6304,907.69,0.023
6305,907.77,0.023
6306,907.86,0.023
6307,907.94,0.023
6308,908.02,0.023
6309,908.10,0.023
6310,908.19,0.023
6311,908.27,0.023
6312,908.35,0.023
6313,908.44,0.023
6314,908.52,0.023
6315,908.61,0.023
6316,908.69,0.023
6317,908.77,0.024
6318,908.85,0.024
6319,908.94,0.024
6320,909.02,0.024
6321,909.10,0.024
6322,909.19,0.024
6323,909.27,0.024
6324,909.35,0.024
6325,909.44,0.024
6326,909.53,0.024
6327,909.60,0.024
6328,909.69,0.024
6329,909.78,0.024
6330,909.86,0.024
6331,909.94,0.024
6332,910.02,0.024
6333,910.11,0.024
6334,910.19,0.024
6335,910.27,0.024
6336,910.36,0.024
6337,910.44,0.024
6338,910.52,0.024
6339,910.61,0.024
6340,910.69,0.024
6341,910.77,0.024
6342,910.86,0.024
6343,910.94,0.024
6344,911.02,0.024
6345,911.11,0.024
6346,911.19,0.024
6347,911.28,0.024
6348,911.36,0.024
6349,911.44,0.024
6350,911.52,0.024
6351,911.61,0.024
6352,911.69,0.024
6353,911.77,0.024
6354,911.86,0.024
6355,911.94,0.024
6356,912.02,0.024
6357,912.11,0.024
6358,912.19,0.024
6359,912.27,0.024
6360,912.35,0.024
6361,912.44,0.024
6362,912.52,0.024
6363,912.60,0.024
6364,912.70,0.024
6365,912.77,0.024
6366,912.85,0.024
6367,912.94,0.024
6368,913.03,0.024
6369,913.11,0.024
6370,913.19,0.024
6371,913.28,0.024
6372,913.36,0.024
6373,913.44,0.024
6374,913.52,0.024
6375,913.61,0.024
6376,913.69,0.024
6377,913.77,0.024
6378,913.85,0.024
6379,913.94,0.024
6380,914.02,0.024
6381,914.10,0.024
6382,914.18,0.024
6383,914.28,0.024
6384,914.36,0.024
6385,914.44,0.024
6386,914.52,0.024
6387,914.60,0.024
6388,914.69,0.024
6389,914.77,0.024
6390,914.85,0.024
6391,914.94,0.024
6392,915.02,0.024
6393,915.11,0.024
6394,915.19,0.024
6395,915.27,0.024
6396,915.36,0.024
6397,915.44,0.024
6398,915.53,0.024
6399,915.61,0.024
6400,915.69,0.024
6401,915.78,0.024
6402,915.86,0.024
6403,915.94,0.024
6404,916.02,0.024
6405,916.11,0.024
6406,916.19,0.024
6407,916.27,0.024
6408,916.36,0.024
6409,916.44,0.024
6410,916.53,0.024
6411,916.61,0.024
6412,916.68,0.024
6413,916.77,0.024
6414,916.85,0.024
6415,916.94,0.024
6416,917.03,0.024
6417,917.11,0.024
6418,917.19,0.024
6419,917.27,0.024
6420,917.35,0.024
6421,917.44,0.024
6422,917.53,0.024
6423,917.61,0.024
6424,917.69,0.024
6425,917.77,0.024
6426,917.86,0.024
6427,917.94,0.024
6428,918.02,0.024
6429,918.11,0.024
6430,918.19,0.024
6431,918.27,0.024
6432,918.36,0.024
6433,918.44,0.024
6434,918.52,0.024
6435,918.61,0.024
6436,918.69,0.024
6437,918.77,0.024
6438,918.86,0.024
6439,918.94,0.024
6440,919.03,0.024
6441,919.11,0.024
6442,919.19,0.024
6443,919.28,0.024
6444,919.36,0.024
6445,919.44,0.024
6446,919.52,0.024
6447,919.61,0.024
6448,919.69,0.024
6449,919.77,0.024
6450,919.85,0.024
6451,919.94,0.024
6452,920.02,0.024
6453,920.10,0.024
6454,920.19,0.024
6455,920.27,0.024
6456,920.35,0.024
6457,920.44,0.024
6458,920.52,0.024
6459,920.61,0.024
6460,920.69,0.024
6461,920.77,0.024
6462,920.86,0.024
6463,920.94,0.024
6464,921.02,0.024
6465,921.11,0.024
6466,921.19,0.024
6467,921.27,0.024
6468,921.36,0.024
6469,921.44,0.024
6470,921.53,0.024
6471,921.61,0.024
6472,921.69,0.024
6473,921.78,0.024
6474,921.86,0.024
6475,921.94,0.024
6476,922.02,0.024
6477,922.11,0.024
6478,922.19,0.024
6479,922.28,0.024
6480,922.36,0.024
6481,922.44,0.024
6482,922.53,0.024
6483,922.61,0.024
6484,922.69,0.024
6485,922.77,0.024
6486,922.86,0.024
6487,922.94,0.024
6488,923.03,0.024
6489,923.11,0.024
6490,923.19,0.024
6491,923.28,0.024
6492,923.36,0.024
6493,923.44,0.024
6494,923.52,0.024
6495,923.60,0.024
6496,923.69,0.024
6497,923.77,0.024
6498,923.85,0.024
6499,923.94,0.024
6500,924.02,0.024
6501,924.10,0.024
6502,924.19,0.024
6503,924.27,0.024
6504,924.36,0.024
6505,924.44,0.024
6506,924.52,0.024
6507,924.61,0.024
6508,924.69,0.024
6509,924.78,0.024
6510,924.86,0.024
6511,924.94,0.024
6512,925.02,0.024
6513,925.11,0.024
6514,925.19,0.024
6515,925.27,0.024
6516,925.36,0.024
6517,925.44,0.024
6518,925.53,0.024
6519,925.61,0.024
6520,925.69,0.024
6521,925.77,0.024
6522,925.86,0.024
6523,925.94,0.024
6524,926.02,0.024
6525,926.10,0.024
6526,926.19,0.024
6527,926.27,0.024
6528,926.35,0.024
6529,926.44,0.024
6530,926.52,0.024
6531,926.60,0.024
6532,926.69,0.024
6533,926.77,0.024
6534,926.85,0.024
6535,926.94,0.024
6536,927.02,0.024
6537,927.11,0.024
6538,927.19,0.024
6539,927.27,0.024
6540,927.36,0.024
6541,927.44,0.024
6542,927.52,0.024
6543,927.61,0.024
6544,927.69,0.024
6545,927.77,0.024
6546,927.86,0.024
6547,927.94,0.024
6548,928.02,0.024
6549,928.11,0.024
6550,928.19,0.024
6551,928.28,0.024
6552,928.36,0.024
6553,928.44,0.024
6554,928.52,0.024
6555,928.61,0.024
6556,928.69,0.024
6557,928.77,0.024
6558,928.85,0.024
6559,928.94,0.024
6560,929.02,0.024
6561,929.10,0.024
6562,929.19,0.024
6563,929.27,0.024
6564,929.36,0.024
6565,929.44,0.024
6566,929.53,0.024
6567,929.60,0.024
6568,929.69,0.024
6569,929.77,0.024
6570,929.86,0.024
6571,929.94,0.024
6572,930.02,0.024
6573,930.10,0.024
6574,930.19,0.024
6575,930.27,0.024
6576,930.36,0.024
6577,930.45,0.024
6578,930.52,0.024
6579,930.60,0.024
6580,930.69,0.024
6581,930.77,0.024
6582,930.85,0.024
6583,930.94,0.024
6584,931.03,0.024
6585,931.11,0.024
6586,931.19,0.024
6587,931.28,0.024
6588,931.36,0.024
6589,931.43,0.024
6590,931.52,0.024
6591,931.61,0.024
6592,931.70,0.024
6593,931.78,0.024
6594,931.86,0.024
6595,931.94,0.024
6596,932.02,0.024
6597,932.11,0.024
6598,932.19,0.024
6599,932.27,0.024
6600,932.35,0.024
6601,932.43,0.024
6602,932.52,0.024
6603,932.61,0.024
6604,932.69,0.024
6605,932.77,0.024
6606,932.85,0.024
6607,932.94,0.024
6608,933.02,0.024
6609,933.11,0.024
6610,933.19,0.024
6611,933.28,0.024
6612,933.36,0.024
6613,933.44,0.024
6614,933.53,0.024
6615,933.61,0.024
6616,933.69,0.024
6617,933.77,0.024
6618,933.86,0.024
6619,933.94,0.024
6620,934.03,0.024
6621,934.11,0.024
6622,934.19,0.024
6623,934.27,0.024
6624,934.36,0.024
6625,934.44,0.024
6626,934.53,0.024
6627,934.61,0.024
6628,934.69,0.024
6629,934.77,0.024
6630,934.86,0.024
6631,934.94,0.024
6632,935.03,0.024
6633,935.11,0.024
6634,935.19,0.024
6635,935.27,0.024
6636,935.35,0.024
6637,935.43,0.024
6638,935.52,0.024
6639,935.60,0.024
6640,935.69,0.024
6641,935.77,0.024
6642,935.86,0.024
6643,935.94,0.024
6644,936.02,0.024
6645,936.11,0.024
6646,936.19,0.024
6647,936.28,0.024
6648,936.35,0.024
6649,936.44,0.024
6650,936.53,0.024
6651,936.61,0.024
6652,936.69,0.024
6653,936.78,0.024
6654,936.86,0.024
6655,936.94,0.024
6656,937.03,0.024
6657,937.11,0.024
6658,937.19,0.024
6659,937.28,0.024
6660,937.36,0.024
6661,937.44,0.024
6662,937.53,0.024
6663,937.61,0.024
6664,937.69,0.024
6665,937.77,0.024
6666,937.86,0.024
6667,937.94,0.024
6668,938.02,0.024
6669,938.11,0.024
6670,938.19,0.024
6671,938.27,0.024
6672,938.35,0.024
6673,938.44,0.024
6674,938.52,0.024
6675,938.60,0.024
6676,938.69,0.024
6677,938.77,0.024
6678,938.85,0.024
6679,938.94,0.024
6680,939.02,0.024
6681,939.11,0.024
6682,939.19,0.024
6683,939.27,0.024
6684,939.36,0.024
6685,939.44,0.024
6686,939.52,0.024
6687,939.61,0.024
6688,939.69,0.024
6689,939.78,0.024
6690,939.86,0.024
6691,939.94,0.024
6692,940.03,0.024
6693,940.11,0.024
6694,940.19,0.024
6695,940.28,0.024
6696,940.36,0.024
6697,940.44,0.024
6698,940.53,0.024
6699,940.61,0.024
6700,940.69,0.024
6701,940.77,0.024
6702,940.86,0.024
6703,940.94,0.024
6704,941.02,0.024
6705,941.10,0.024
6706,941.19,0.024
6707,941.27,0.024
6708,941.35,0.024
6709,941.43,0.024
6710,941.53,0.024
6711,941.61,0.024
6712,941.69,0.024
6713,941.77,0.024
6714,941.85,0.024
6715,941.94,0.024
6716,942.02,0.024
6717,942.11,0.024
6718,942.19,0.024
6719,942.28,0.024
6720,942.35,0.024
6721,942.44,0.024
6722,942.53,0.024
6723,942.61,0.024
6724,942.69,0.024
6725,942.78,0.024
6726,942.86,0.024
6727,942.94,0.024
6728,943.03,0.024
6729,943.11,0.024
6730,943.19,0.024
6731,943.27,0.024
6732,943.36,0.024
6733,943.44,0.024
6734,943.53,0.024
6735,943.61,0.024
6736,943.69,0.024
6737,943.78,0.024
6738,943.86,0.024
6739,943.94,0.024
6740,944.02,0.024
6741,944.10,0.024
6742,944.19,0.024
6743,944.27,0.024
6744,944.35,0.024
6745,944.44,0.024
6746,944.53,0.024
6747,944.60,0.024
6748,944.69,0.024
6749,944.77,0.024
6750,944.85,0.024
6751,944.94,0.024
6752,945.02,0.024
6753,945.10,0.024
6754,945.19,0.024
6755,945.27,0.024
6756,945.36,0.024
6757,945.44,0.024
6758,945.52,0.024
6759,945.60,0.024
6760,945.69,0.024
6761,945.78,0.024
6762,945.86,0.024
6763,945.93,0.024
6764,946.02,0.024
6765,946.11,0.024
6766,946.19,0.024
6767,946.28,0.024
6768,946.36,0.024
6769,946.44,0.024
6770,946.53,0.024
6771,946.61,0.024
6772,946.69,0.024
6773,946.77,0.024
6774,946.85,0.024
6775,946.94,0.024
6776,947.02,0.024
6777,947.10,0.024
6778,947.19,0.024
6779,947.27,0.024
6780,947.36,0.024
6781,947.44,0.024
6782,947.52,0.024
6783,947.61,0.024
6784,947.69,0.024
6785,947.77,0.024
6786,947.86,0.024
6787,947.94,0.024
6788,948.03,0.024
6789,948.11,0.024
6790,948.19,0.024
6791,948.27,0.024
6792,948.36,0.024
6793,948.44,0.024
6794,948.53,0.024
6795,948.61,0.024
6796,948.69,0.024
6797,948.77,0.024
6798,948.86,0.024
6799,948.94,0.024
6800,949.03,0.024
6801,949.10,0.024
6802,949.18,0.024
6803,949.27,0.024
6804,949.36,0.024
6805,949.44,0.024
6806,949.53,0.024
6807,949.60,0.024
6808,949.69,0.024
6809,949.77,0.024
6810,949.86,0.024
6811,949.94,0.024
6812,950.02,0.024
6813,950.11,0.024
6814,950.19,0.024
6815,950.28,0.024
6816,950.36,0.024
6817,950.44,0.024
6818,950.52,0.024
6819,950.61,0.024
6820,950.69,0.024
6821,950.77,0.024
6822,950.86,0.024
6823,950.94,0.024
6824,951.02,0.024
6825,951.10,0.024
6826,951.19,0.024
6827,951.28,0.024
6828,951.35,0.024
6829,951.44,0.024
6830,951.52,0.024
6831,951.61,0.024
6832,951.69,0.024
6833,951.77,0.024
6834,951.85,0.024
6835,951.94,0.024
6836,952.03,0.024
6837,952.11,0.024
6838,952.20,0.024
6839,952.28,0.024
6840,952.36,0.024
6841,952.44,0.024
6842,952.52,0.024
6843,952.60,0.024
6844,952.69,0.024
6845,952.78,0.024
6846,952.85,0.024
6847,952.94,0.024
6848,953.03,0.024
6849,953.10,0.024
6850,953.19,0.024
6851,953.27,0.024
6852,953.36,0.024
6853,953.44,0.024
6854,953.52,0.024
6855,953.61,0.024
6856,953.69,0.024
6857,953.78,0.024
6858,953.85,0.024
6859,953.94,0.024
6860,954.03,0.024
6861,954.11,0.024
6862,954.19,0.024
6863,954.28,0.024
6864,954.36,0.024
6865,954.44,0.024
6866,954.52,0.024
6867,954.61,0.024
6868,954.69,0.024
6869,954.78,0.024
6870,954.86,0.024
6871,954.94,0.024
6872,955.03,0.024
6873,955.11,0.024
6874,955.19,0.024
6875,955.27,0.024
6876,955.35,0.024
6877,955.44,0.024
6878,955.52,0.024
6879,955.60,0.024
6880,955.69,0.024
6881,955.77,0.024
6882,955.86,0.024
6883,955.94,0.024
6884,956.02,0.024
6885,956.11,0.024
6886,956.19,0.024
6887,956.27,0.024
6888,956.36,0.024
6889,956.44,0.024
6890,956.53,0.024
6891,956.60,0.024
6892,956.69,0.024
6893,956.78,0.024
6894,956.86,0.024
6895,956.94,0.024
6896,957.02,0.024
6897,957.11,0.024
6898,957.19,0.024
6899,957.28,0.024
6900,957.36,0.024
6901,957.44,0.024
6902,957.53,0.024
6903,957.61,0.024
6904,957.69,0.024
6905,957.77,0.024
6906,957.86,0.024
6907,957.93,0.024
6908,958.02,0.024
6909,958.10,0.024
6910,958.19,0.024
6911,958.27,0.024
6912,958.36,0.024
6913,958.44,0.024
6914,958.52,0.024
6915,958.61,0.024
6916,958.69,0.024
6917,958.77,0.024
6918,958.86,0.024
6919,958.94,0.024
6920,959.02,0.024
6921,959.11,0.024
6922,959.19,0.024
6923,959.27,0.024
6924,959.36,0.024
6925,959.44,0.024
6926,959.53,0.024
6927,959.61,0.024
6928,959.69,0.024
6929,959.78,0.024
6930,959.86,0.024
6931,959.94,0.024
6932,960.02,0.024
6933,960.11,0.024
6934,960.20,0.024
6935,960.28,0.024
6936,960.35,0.024
6937,960.43,0.024
6938,960.52,0.024
6939,960.60,0.024
6940,960.69,0.024
6941,960.77,0.024
6942,960.86,0.024
6943,960.94,0.024
6944,961.02,0.024
6945,961.11,0.024
6946,961.19,0.024
6947,961.27,0.024
6948,961.36,0.024
6949,961.44,0.024
6950,961.52,0.024
6951,961.61,0.024
6952,961.69,0.024
6953,961.77,0.024
6954,961.86,0.024
6955,961.95,0.024
6956,962.02,0.024
6957,962.10,0.024
6958,962.19,0.024
6959,962.28,0.024
6960,962.36,0.024
6961,962.45,0.024
6962,962.53,0.024
6963,962.61,0.024
6964,962.69,0.024
6965,962.78,0.024
6966,962.86,0.024
6967,962.94,0.024
6968,963.03,0.024
6969,963.11,0.024
6970,963.19,0.024
6971,963.27,0.024
6972,963.36,0.024
6973,963.44,0.024
6974,963.52,0.024
6975,963.60,0.024
6976,963.69,0.024
6977,963.77,0.024
6978,963.85,0.024
6979,963.94,0.024
6980,964.03,0.024
6981,964.11,0.024
6982,964.19,0.024
6983,964.27,0.024
6984,964.36,0.023
6985,964.44,0.023
6986,964.52,0.023
6987,964.61,0.023
6988,964.69,0.023
6989,964.77,0.023
6990,964.86,0.024
6991,964.94,0.024
6992,965.03,0.024
6993,965.11,0.024
6994,965.19,0.024
6995,965.27,0.024
6996,965.36,0.024
6997,965.44,0.024
6998,965.53,0.024
6999,965.61,0.024
7000,965.69,0.024
7001,965.77,0.024
7002,965.86,0.024
7003,965.94,0.024
7004,966.02,0.024
7005,966.11,0.024
7006,966.19,0.024
7007,966.27,0.024
7008,966.35,0.024
7009,966.44,0.024
7010,966.52,0.024
7011,966.61,0.024
7012,966.69,0.024
7013,966.77,0.024
7014,966.86,0.024
7015,966.94,0.024
7016,967.02,0.024
7017,967.11,0.024
7018,967.19,0.024
7019,967.27,0.024
7020,967.36,0.024
7021,967.44,0.024
7022,967.52,0.024
7023,967.61,0.024
7024,967.69,0.024
7025,967.77,0.024
7026,967.86,0.024
7027,967.94,0.024
7028,968.03,0.024
7029,968.11,0.024
7030,968.19,0.024
7031,968.28,0.024
7032,968.36,0.024
7033,968.44,0.024
7034,968.53,0.024
7035,968.61,0.024
7036,968.69,0.024
7037,968.77,0.024
7038,968.86,0.024
7039,968.94,0.024
7040,969.02,0.024
7041,969.11,0.024
7042,969.19,0.024
7043,969.27,0.024
7044,969.36,0.024
7045,969.44,0.024
7046,969.52,0.024
7047,969.61,0.024
7048,969.69,0.024
7049,969.77,0.024
7050,969.86,0.024
7051,969.94,0.024
7052,970.02,0.024
7053,970.11,0.024
7054,970.19,0.024
7055,970.27,0.024
7056,970.36,0.024
7057,970.44,0.024
7058,970.52,0.024
7059,970.61,0.024
7060,970.69,0.024
7061,970.77,0.024
7062,970.86,0.024
7063,970.95,0.024
7064,971.03,0.024
7065,971.11,0.024
7066,971.19,0.024
7067,971.28,0.024
7068,971.36,0.024
7069,971.44,0.024
7070,971.52,0.024
7071,971.61,0.024
7072,971.69,0.024
7073,971.77,0.024
7074,971.85,0.024
7075,971.94,0.024
7076,972.03,0.024
7077,972.11,0.024
7078,972.19,0.024
7079,972.27,0.024
7080,972.36,0.024
7081,972.44,0.024
7082,972.52,0.024
7083,972.61,0.024
7084,972.69,0.024
7085,972.77,0.024
7086,972.86,0.024
7087,972.94,0.024
7088,973.02,0.024
7089,973.11,0.024
7090,973.19,0.024
7091,973.28,0.024
7092,973.36,0.024
7093,973.44,0.024
7094,973.53,0.024
7095,973.61,0.024
7096,973.69,0.024
7097,973.78,0.024
7098,973.86,0.024
7099,973.94,0.024
7100,974.02,0.024
7101,974.11,0.024
7102,974.19,0.024
7103,974.27,0.024
7104,974.36,0.024
7105,974.44,0.024
7106,974.52,0.024
7107,974.60,0.024
7108,974.69,0.024
7109,974.77,0.024
7110,974.86,0.024
7111,974.94,0.024
7112,975.02,0.024
7113,975.11,0.024
7114,975.19,0.024
7115,975.28,0.024
7116,975.35,0.024
7117,975.44,0.024
7118,975.53,0.024
7119,975.61,0.024
7120,975.69,0.024
7121,975.77,0.024
7122,975.86,0.024
7123,975.94,0.024
7124,976.02,0.024
7125,976.11,0.024
7126,976.20,0.024
7127,976.28,0.024
7128,976.35,0.024
7129,976.44,0.024
7130,976.52,0.024
7131,976.61,0.024
7132,976.69,0.024
7133,976.78,0.024
7134,976.86,0.024
7135,976.94,0.024
7136,977.02,0.024
7137,977.11,0.024
7138,977.19,0.024
7139,977.27,0.024
7140,977.36,0.024
7141,977.44,0.024
7142,977.52,0.024
7143,977.61,0.024
7144,977.69,0.024
7145,977.77,0.024
7146,977.86,0.024
7147,977.94,0.024
7148,978.03,0.024
7149,978.11,0.024
7150,978.19,0.024
7151,978.28,0.024
7152,978.36,0.024
7153,978.44,0.024
7154,978.53,0.024
7155,978.61,0.024
7156,978.69,0.024
7157,978.77,0.024
7158,978.86,0.024
7159,978.94,0.024
7160,979.03,0.024
7161,979.11,0.024
7162,979.18,0.024
7163,979.27,0.024
7164,979.36,0.024
7165,979.44,0.024
7166,979.53,0.024
7167,979.60,0.024
7168,979.69,0.024
7169,979.77,0.024
7170,979.86,0.024
7171,979.94,0.024
7172,980.02,0.024
7173,980.10,0.024
7174,980.19,0.024
7175,980.28,0.024
7176,980.35,0.024
7177,980.44,0.024
7178,980.52,0.024
7179,980.61,0.024
7180,980.69,0.024
7181,980.77,0.024
7182,980.86,0.024
7183,980.94,0.024
7184,981.03,0.024
7185,981.11,0.024
7186,981.19,0.024
7187,981.28,0.024
7188,981.36,0.024
7189,981.44,0.024
7190,981.53,0.024
7191,981.61,0.024
7192,981.69,0.024
7193,981.78,0.024
7194,981.86,0.024
7195,981.94,0.024
7196,982.02,0.024
7197,982.10,0.024
7198,982.19,0.024
7199,982.28,0.024
7200,982.36,0.024
7201,982.44,0.024
7202,982.53,0.024
7203,982.61,0.024
7204,982.69,0.024
7205,982.77,0.024
7206,982.86,0.024
7207,982.94,0.024
7208,983.02,0.024
7209,983.11,0.024
7210,983.19,0.024
7211,983.27,0.024
7212,983.36,0.024
7213,983.44,0.024
7214,983.53,0.024
7215,983.61,0.024
7216,983.69,0.024
7217,983.78,0.024
7218,983.86,0.024
7219,983.94,0.024
7220,984.02,0.024
7221,984.11,0.024
7222,984.19,0.024
7223,984.27,0.024
7224,984.35,0.024
7225,984.44,0.024
7226,984.52,0.024
7227,984.61,0.024
7228,984.69,0.024
7229,984.78,0.024
7230,984.86,0.024
7231,984.94,0.024
7232,985.02,0.024
7233,985.11,0.024
7234,985.19,0.024
7235,985.27,0.024
7236,985.35,0.024
7237,985.44,0.024
7238,985.52,0.024
7239,985.61,0.024
7240,985.69,0.024
7241,985.77,0.024
7242,985.85,0.024
7243,985.95,0.024
7244,986.02,0.024
7245,986.10,0.024
7246,986.19,0.024
7247,986.28,0.024
7248,986.35,0.024
7249,986.44,0.024
7250,986.53,0.024
7251,986.61,0.024
7252,986.69,0.024
7253,986.78,0.024
7254,986.86,0.024
7255,986.94,0.024
7256,987.03,0.024
7257,987.11,0.024
7258,987.19,0.024
7259,987.28,0.024
7260,987.36,0.024
7261,987.44,0.024
7262,987.52,0.024
7263,987.60,0.024
7264,987.69,0.024
7265,987.77,0.024
7266,987.86,0.024
7267,987.94,0.024
7268,988.02,0.024
7269,988.10,0.024
7270,988.19,0.024
7271,988.28,0.024
7272,988.35,0.024
7273,988.45,0.024
7274,988.52,0.024
7275,988.60,0.024
7276,988.69,0.024
7277,988.78,0.024
7278,988.86,0.024
7279,988.94,0.024
7280,989.02,0.024
7281,989.11,0.024
7282,989.19,0.024
7283,989.28,0.024
7284,989.36,0.024
7285,989.44,0.024
7286,989.52,0.024
7287,989.61,0.024
7288,989.70,0.024
7289,989.78,0.024
7290,989.86,0.024
7291,989.94,0.024
7292,990.02,0.024
7293,990.10,0.024
7294,990.19,0.024
7295,990.27,0.024
7296,990.35,0.024
7297,990.44,0.024
7298,990.53,0.024
7299,990.60,0.024
7300,990.69,0.024
7301,990.77,0.024
7302,990.86,0.024
7303,990.94,0.024
7304,991.03,0.024
7305,991.11,0.024
7306,991.19,0.024
7307,991.27,0.024
7308,991.36,0.024
7309,991.44,0.024
7310,991.52,0.024
7311,991.61,0.024
7312,991.69,0.024
7313,991.78,0.024
7314,991.86,0.024
7315,991.94,0.024
7316,992.03,0.024
7317,992.11,0.024
7318,992.19,0.024
7319,992.28,0.024
7320,992.36,0.024
7321,992.44,0.024
7322,992.53,0.024
7323,992.61,0.024
7324,992.69,0.024
7325,992.77,0.024
7326,992.86,0.024
7327,992.94,0.024
7328,993.02,0.024
7329,993.11,0.024
7330,993.19,0.024
7331,993.27,0.024
7332,993.36,0.024
7333,993.44,0.024
7334,993.52,0.024
7335,993.61,0.024
7336,993.69,0.024
7337,993.77,0.024
7338,993.86,0.024
7339,993.94,0.024
7340,994.02,0.024
7341,994.11,0.024
7342,994.19,0.024
7343,994.27,0.024
7344,994.36,0.024
7345,994.44,0.024
7346,994.52,0.024
7347,994.61,0.024
7348,994.69,0.024
7349,994.77,0.024
7350,994.86,0.024
7351,994.94,0.024
7352,995.02,0.024
7353,995.10,0.024
7354,995.19,0.024
7355,995.27,0.024
7356,995.35,0.024
7357,995.44,0.024
7358,995.52,0.024
7359,995.61,0.024
7360,995.69,0.024
7361,995.77,0.024
7362,995.86,0.024
7363,995.94,0.024
7364,996.02,0.024
7365,996.11,0.024
7366,996.19,0.024
7367,996.28,0.024
7368,996.36,0.024
7369,996.44,0.024
7370,996.52,0.024
7371,996.61,0.024
7372,996.70,0.024
7373,996.77,0.024
7374,996.86,0.024
7375,996.95,0.024
7376,997.03,0.024
7377,997.11,0.024
7378,997.19,0.024
7379,997.27,0.024
7380,997.36,0.024
7381,997.44,0.024
7382,997.52,0.024
7383,997.61,0.024
7384,997.69,0.025
7385,997.77,0.025
7386,997.85,0.025
7387,997.94,0.024
7388,998.02,0.024
7389,998.11,0.024
7390,998.20,0.024
7391,998.27,0.024
7392,998.36,0.024
7393,998.45,0.024
7394,998.52,0.024
7395,998.61,0.024
7396,998.70,0.024
7397,998.77,0.024
7398,998.86,0.024
7399,998.95,0.024
7400,999.02,0.024
7401,999.11,0.024
7402,999.19,0.024
7403,999.28,0.024
7404,999.35,0.024
7405,999.44,0.024
7406,999.53,0.024
7407,999.61,0.024
7408,999.69,0.024
7409,999.77,0.024
7410,999.86,0.024
7411,999.94,0.024
7412,1000.03,0.024
7413,1000.11,0.024
7414,1000.19,0.024
7415,1000.27,0.024
7416,1000.35,0.024
7417,1000.44,0.024
7418,1000.53,0.024
7419,1000.61,0.024
7420,1000.69,0.024
7421,1000.78,0.024
7422,1000.85,0.024
7423,1000.94,0.024
7424,1001.02,0.024
7425,1001.11,0.024
7426,1001.19,0.024
7427,1001.28,0.025
7428,1001.36,0.025
7429,1001.44,0.025
7430,1001.53,0.024
7431,1001.61,0.024
7432,1001.69,0.024
7433,1001.77,0.024
7434,1001.86,0.024
7435,1001.94,0.024
7436,1002.03,0.024
7437,1002.11,0.024
7438,1002.19,0.024
7439,1002.28,0.024
7440,1002.36,0.024
7441,1002.44,0.024
7442,1002.52,0.024
7443,1002.61,0.024
7444,1002.69,0.024
7445,1002.77,0.024
7446,1002.86,0.024
7447,1002.95,0.024
7448,1003.02,0.024
7449,1003.10,0.025
7450,1003.19,0.025
7451,1003.28,0.025
7452,1003.35,0.025
7453,1003.44,0.025
7454,1003.52,0.025
7455,1003.60,0.025
7456,1003.69,0.025
7457,1003.77,0.025
7458,1003.86,0.025
7459,1003.95,0.025
7460,1004.02,0.025
7461,1004.10,0.025
7462,1004.19,0.025
7463,1004.28,0.025
7464,1004.36,0.025
7465,1004.44,0.025
7466,1004.52,0.025
7467,1004.61,0.025
7468,1004.70,0.025
7469,1004.77,0.025
7470,1004.85,0.025
7471,1004.93,0.025
7472,1005.02,0.025
7473,1005.11,0.025
7474,1005.19,0.025
7475,1005.27,0.025
7476,1005.36,0.025
7477,1005.44,0.025
7478,1005.52,0.024
7479,1005.61,0.024
7480,1005.69,0.024
7481,1005.77,0.024
7482,1005.86,0.024
7483,1005.94,0.024
7484,1006.03,0.024
7485,1006.11,0.024
7486,1006.19,0.024
7487,1006.28,0.024
7488,1006.36,0.024
7489,1006.44,0.024
7490,1006.53,0.024
7491,1006.61,0.024
7492,1006.69,0.024
7493,1006.77,0.024
7494,1006.86,0.024
7495,1006.94,0.024
7496,1007.03,0.024
7497,1007.11,0.024
7498,1007.19,0.024
7499,1007.27,0.024
7500,1007.35,0.024
7501,1007.44,0.024
7502,1007.52,0.024
7503,1007.60,0.024
7504,1007.69,0.024
7505,1007.77,0.024
7506,1007.86,0.024
7507,1007.94,0.024
7508,1008.03,0.024
7509,1008.11,0.024
7510,1008.19,0.024
7511,1008.28,0.024
7512,1008.35,0.024
7513,1008.44,0.024
7514,1008.53,0.024
7515,1008.61,0.024
7516,1008.69,0.024
7517,1008.77,0.024
7518,1008.85,0.024
7519,1008.94,0.025
7520,1009.03,0.025
7521,1009.11,0.025
7522,1009.19,0.025
7523,1009.28,0.025
7524,1009.36,0.024
7525,1009.44,0.024
7526,1009.52,0.024
7527,1009.61,0.024
7528,1009.69,0.024
7529,1009.78,0.024
7530,1009.86,0.024
7531,1009.94,0.024
7532,1010.02,0.025
7533,1010.10,0.025
7534,1010.19,0.025
7535,1010.27,0.025
7536,1010.35,0.025
7537,1010.44,0.025
7538,1010.52,0.025
7539,1010.61,0.025
7540,1010.69,0.025
7541,1010.77,0.025
7542,1010.86,0.025
7543,1010.94,0.025
7544,1011.02,0.025
7545,1011.11,0.025
7546,1011.20,0.025
7547,1011.27,0.025
7548,1011.36,0.025
7549,1011.44,0.025
7550,1011.53,0.025
7551,1011.61,0.025
7552,1011.69,0.025
7553,1011.78,0.025
7554,1011.86,0.025
7555,1011.94,0.025
7556,1012.03,0.025
7557,1012.11,0.025
7558,1012.19,0.025
7559,1012.28,0.025
7560,1012.36,0.025
7561,1012.44,0.025
7562,1012.52,0.025
7563,1012.61,0.025
7564,1012.69,0.025
7565,1012.77,0.025
7566,1012.86,0.025
7567,1012.94,0.025
7568,1013.02,0.025
7569,1013.11,0.025
7570,1013.19,0.025
7571,1013.27,0.025
7572,1013.36,0.025
7573,1013.44,0.025
7574,1013.53,0.025
7575,1013.60,0.025
7576,1013.69,0.025
7577,1013.78,0.025
7578,1013.86,0.025
7579,1013.95,0.025
7580,1014.02,0.025
7581,1014.10,0.025
7582,1014.19,0.025
7583,1014.28,0.025
7584,1014.36,0.025
7585,1014.44,0.025
7586,1014.52,0.025
7587,1014.60,0.025
7588,1014.69,0.025
7589,1014.78,0.025
7590,1014.85,0.025
7591,1014.94,0.025
7592,1015.02,0.025
7593,1015.11,0.025
7594,1015.19,0.025
7595,1015.27,0.025
7596,1015.37,0.025
7597,1015.45,0.025
7598,1015.52,0.025
7599,1015.61,0.025
7600,1015.69,0.025
7601,1015.78,0.025
7602,1015.86,0.025
7603,1015.94,0.025
7604,1016.03,0.025
7605,1016.11,0.025
7606,1016.19,0.025
7607,1016.27,0.025
7608,1016.35,0.025
7609,1016.44,0.025
7610,1016.53,0.025
7611,1016.61,0.025
7612,1016.69,0.025
7613,1016.78,0.025
7614,1016.86,0.025
7615,1016.94,0.025
7616,1017.02,0.025
7617,1017.11,0.025
7618,1017.19,0.025
7619,1017.27,0.025
7620,1017.35,0.025
7621,1017.43,0.025
7622,1017.53,0.025
7623,1017.61,0.025
7624,1017.69,0.025
7625,1017.77,0.025
7626,1017.86,0.025
7627,1017.94,0.025
7628,1018.02,0.025
7629,1018.11,0.025
7630,1018.19,0.025
7631,1018.28,0.025
7632,1018.36,0.025
7633,1018.43,0.025
7634,1018.52,0.025
7635,1018.61,0.025
7636,1018.69,0.025
7637,1018.77,0.025
7638,1018.86,0.025
7639,1018.94,0.025
7640,1019.03,0.025
7641,1019.11,0.025
7642,1019.19,0.025
7643,1019.27,0.025
7644,1019.35,0.025
7645,1019.44,0.025
7646,1019.52,0.025
7647,1019.60,0.025
7648,1019.69,0.025
7649,1019.77,0.025
7650,1019.86,0.025
7651,1019.94,0.025
7652,1020.03,0.025
7653,1020.11,0.025
7654,1020.19,0.025
7655,1020.28,0.025
7656,1020.36,0.025
7657,1020.44,0.025
7658,1020.53,0.025
7659,1020.61,0.025
7660,1020.69,0.025
7661,1020.78,0.025
7662,1020.86,0.025
7663,1020.95,0.025
7664,1021.02,0.025
7665,1021.11,0.025
7666,1021.19,0.025
7667,1021.27,0.025
7668,1021.36,0.025
7669,1021.44,0.025
7670,1021.53,0.025
7671,1021.61,0.025
7672,1021.69,0.025
7673,1021.77,0.025
7674,1021.86,0.025
7675,1021.94,0.025
7676,1022.02,0.025
7677,1022.10,0.025
7678,1022.19,0.025
7679,1022.28,0.025
7680,1022.35,0.025
7681,1022.44,0.025
7682,1022.53,0.025
7683,1022.61,0.025
7684,1022.68,0.025
7685,1022.78,0.025
7686,1022.86,0.025
7687,1022.93,0.025
7688,1023.02,0.025
7689,1023.11,0.025
7690,1023.20,0.025
7691,1023.27,0.025
7692,1023.36,0.025
7693,1023.44,0.025
7694,1023.52,0.025
7695,1023.60,0.025
7696,1023.69,0.025
7697,1023.78,0.025
7698,1023.86,0.025
7699,1023.94,0.025
7700,1024.02,0.025
7701,1024.10,0.025
7702,1024.19,0.025
7703,1024.27,0.025
7704,1024.35,0.025
7705,1024.44,0.025
7706,1024.52,0.025
7707,1024.60,0.025
7708,1024.69,0.025
7709,1024.77,0.025
7710,1024.86,0.025
7711,1024.94,0.025
7712,1025.02,0.025
7713,1025.11,0.025
7714,1025.19,0.025
7715,1025.28,0.025
7716,1025.36,0.025
7717,1025.44,0.025
7718,1025.53,0.025
7719,1025.61,0.025
7720,1025.69,0.025
7721,1025.78,0.025
7722,1025.86,0.025
7723,1025.94,0.025
7724,1026.02,0.025
7725,1026.11,0.025
7726,1026.20,0.025
7727,1026.28,0.025
7728,1026.36,0.025
7729,1026.44,0.025
7730,1026.52,0.025
7731,1026.60,0.025
7732,1026.69,0.025
7733,1026.77,0.025
7734,1026.86,0.025
7735,1026.94,0.025
7736,1027.03,0.025
7737,1027.11,0.025
7738,1027.19,0.025
7739,1027.28,0.025
7740,1027.36,0.025
7741,1027.44,0.025
7742,1027.53,0.025
7743,1027.61,0.025
7744,1027.69,0.025
7745,1027.78,0.025
7746,1027.86,0.025
7747,1027.94,0.025
7748,1028.02,0.025
7749,1028.11,0.025
7750,1028.19,0.025
7751,1028.28,0.025
7752,1028.36,0.025
7753,1028.44,0.025
7754,1028.52,0.025
7755,1028.61,0.025
7756,1028.69,0.025
7757,1028.78,0.025
7758,1028.86,0.025
7759,1028.94,0.025
7760,1029.02,0.025
7761,1029.11,0.025
7762,1029.19,0.025
7763,1029.27,0.025
7764,1029.35,0.025
7765,1029.44,0.025
7766,1029.52,0.025
7767,1029.60,0.025
7768,1029.69,0.025
7769,1029.77,0.025
7770,1029.86,0.025
7771,1029.94,0.025
7772,1030.03,0.025
7773,1030.11,0.025
7774,1030.19,0.025
7775,1030.27,0.025
7776,1030.36,0.025
7777,1030.44,0.025
7778,1030.53,0.025
7779,1030.61,0.025
7780,1030.69,0.025
7781,1030.78,0.025
7782,1030.86,0.025
7783,1030.94,0.025
7784,1031.02,0.025
7785,1031.10,0.025
7786,1031.18,0.025
7787,1031.27,0.025
7788,1031.36,0.025
7789,1031.44,0.025
7790,1031.52,0.025
7791,1031.61,0.025
7792,1031.69,0.025
7793,1031.77,0.025
7794,1031.86,0.025
7795,1031.94,0.025
7796,1032.02,0.025
7797,1032.11,0.025
7798,1032.19,0.025
7799,1032.28,0.025
7800,1032.36,0.025
7801,1032.44,0.025
7802,1032.53,0.025
7803,1032.61,0.025
7804,1032.69,0.025
7805,1032.78,0.025
7806,1032.86,0.025
7807,1032.94,0.025
7808,1033.03,0.025
7809,1033.11,0.025
7810,1033.19,0.025
7811,1033.27,0.025
7812,1033.36,0.025
7813,1033.44,0.025
7814,1033.53,0.025
7815,1033.61,0.025
7816,1033.69,0.025
7817,1033.77,0.025
7818,1033.85,0.025
7819,1033.94,0.025
7820,1034.02,0.025
7821,1034.10,0.025
7822,1034.19,0.025
7823,1034.27,0.025
7824,1034.35,0.025
7825,1034.45,0.025
7826,1034.52,0.025
7827,1034.61,0.025
7828,1034.69,0.025
7829,1034.77,0.025
7830,1034.86,0.025
7831,1034.94,0.025
7832,1035.03,0.025
7833,1035.11,0.025
7834,1035.19,0.025
7835,1035.27,0.025
7836,1035.35,0.025
7837,1035.44,0.025
7838,1035.52,0.025
7839,1035.61,0.025
7840,1035.70,0.025
7841,1035.77,0.025
7842,1035.86,0.025
7843,1035.94,0.025
7844,1036.02,0.025
7845,1036.10,0.025
7846,1036.19,0.025
7847,1036.27,0.025
7848,1036.36,0.025
7849,1036.44,0.025
7850,1036.52,0.025
7851,1036.61,0.025
7852,1036.70,0.025
7853,1036.77,0.025
7854,1036.86,0.025
7855,1036.94,0.025
7856,1037.02,0.025
7857,1037.11,0.025
7858,1037.19,0.025
7859,1037.28,0.025
7860,1037.36,0.025
7861,1037.44,0.025
7862,1037.53,0.025
7863,1037.61,0.025
7864,1037.69,0.025
7865,1037.78,0.025
7866,1037.86,0.025
7867,1037.94,0.025
7868,1038.02,0.025
7869,1038.11,0.025
7870,1038.18,0.025
7871,1038.27,0.025
7872,1038.36,0.025
7873,1038.44,0.025
7874,1038.52,0.025
7875,1038.61,0.025
7876,1038.69,0.025
7877,1038.77,0.025
7878,1038.86,0.025
7879,1038.95,0.025
7880,1039.02,0.025
7881,1039.11,0.025
7882,1039.19,0.025
7883,1039.27,0.025
7884,1039.36,0.025
7885,1039.44,0.025
7886,1039.53,0.025
7887,1039.61,0.025
7888,1039.69,0.025
7889,1039.77,0.025
7890,1039.86,0.025
7891,1039.94,0.025
7892,1040.03,0.025
7893,1040.11,0.025
7894,1040.19,0.025
7895,1040.27,0.025
7896,1040.35,0.025
7897,1040.43,0.025
7898,1040.53,0.025
7899,1040.61,0.025
7900,1040.69,0.025
7901,1040.77,0.025
7902,1040.85,0.025
7903,1040.94,0.025
7904,1041.02,0.025
7905,1041.11,0.025
7906,1041.19,0.025
7907,1041.27,0.025
7908,1041.35,0.025
7909,1041.45,0.025
7910,1041.53,0.025
7911,1041.60,0.025
7912,1041.69,0.025
7913,1041.78,0.025
7914,1041.85,0.025
7915,1041.94,0.025
7916,1042.03,0.025
7917,1042.11,0.025
7918,1042.19,0.025
7919,1042.27,0.025
7920,1042.36,0.025
7921,1042.45,0.025
7922,1042.53,0.025
7923,1042.61,0.025
7924,1042.69,0.025
7925,1042.77,0.025
7926,1042.85,0.025
7927,1042.94,0.025
7928,1043.02,0.025
7929,1043.11,0.025
7930,1043.19,0.025
7931,1043.27,0.025
7932,1043.36,0.025
7933,1043.44,0.025
7934,1043.53,0.025
7935,1043.61,0.025
7936,1043.69,0.025
7937,1043.78,0.025
7938,1043.86,0.025
7939,1043.94,0.025
7940,1044.03,0.025
7941,1044.10,0.025
7942,1044.19,0.025
7943,1044.28,0.025
7944,1044.36,0.025
7945,1044.44,0.025
7946,1044.53,0.025
7947,1044.61,0.025
7948,1044.69,0.025
7949,1044.77,0.025
7950,1044.85,0.025
7951,1044.94,0.025
7952,1045.02,0.025
7953,1045.10,0.025
7954,1045.19,0.025
7955,1045.27,0.025
7956,1045.35,0.025
7957,1045.44,0.025
7958,1045.53,0.025
7959,1045.61,0.025
7960,1045.69,0.025
7961,1045.78,0.025
7962,1045.87,0.025
7963,1045.93,0.025
7964,1046.03,0.025
7965,1046.11,0.025
7966,1046.19,0.025
7967,1046.28,0.025
7968,1046.36,0.025
7969,1046.44,0.025
7970,1046.52,0.025
7971,1046.60,0.025
7972,1046.69,0.025
7973,1046.78,0.025
7974,1046.86,0.025
7975,1046.94,0.025
7976,1047.03,0.025
7977,1047.10,0.025
7978,1047.19,0.025
7979,1047.27,0.025
7980,1047.35,0.025
7981,1047.44,0.025
7982,1047.52,0.025
7983,1047.61,0.025
7984,1047.69,0.025
7985,1047.77,0.025
7986,1047.86,0.025
7987,1047.94,0.025
7988,1048.02,0.025
7989,1048.11,0.025
7990,1048.19,0.025
7991,1048.27,0.025
7992,1048.36,0.025
7993,1048.44,0.025
7994,1048.53,0.025
7995,1048.61,0.025
7996,1048.69,0.025
7997,1048.77,0.025
7998,1048.86,0.025
7999,1048.94,0.025
8000,1049.02,0.025
8001,1049.11,0.025
8002,1049.19,0.025
8003,1049.27,0.025
8004,1049.35,0.025
8005,1049.43,0.025
8006,1049.52,0.025
8007,1049.60,0.025
8008,1049.69,0.025
8009,1049.77,0.025
8010,1049.86,0.025
8011,1049.94,0.025
8012,1050.02,0.025
8013,1050.11,0.025
8014,1050.19,0.025
8015,1050.27,0.025
8016,1050.36,0.025
8017,1050.44,0.025
8018,1050.52,0.025
8019,1050.61,0.025
8020,1050.69,0.025
8021,1050.78,0.025
8022,1050.86,0.025
8023,1050.94,0.025
8024,1051.03,0.025
8025,1051.11,0.025
8026,1051.19,0.025
8027,1051.28,0.025
8028,1051.36,0.025
8029,1051.44,0.025
8030,1051.52,0.025
8031,1051.60,0.025
8032,1051.69,0.025
8033,1051.77,0.025
8034,1051.85,0.025
8035,1051.94,0.025
8036,1052.02,0.025
8037,1052.11,0.024
8038,1052.18,0.024
8039,1052.28,0.024
8040,1052.36,0.024
8041,1052.44,0.024
8042,1052.52,0.024
8043,1052.61,0.024
8044,1052.69,0.024
8045,1052.78,0.024
8046,1052.85,0.024
8047,1052.94,0.024
8048,1053.03,0.024
8049,1053.11,0.024
8050,1053.20,0.024
8051,1053.28,0.025
8052,1053.36,0.025
8053,1053.45,0.025
8054,1053.52,0.025
8055,1053.61,0.025
8056,1053.69,0.025
8057,1053.77,0.025
8058,1053.85,0.025
8059,1053.93,0.025
8060,1054.02,0.025
8061,1054.10,0.025
8062,1054.19,0.025
8063,1054.27,0.025
8064,1054.36,0.025
8065,1054.44,0.025
8066,1054.53,0.025
8067,1054.60,0.025
8068,1054.69,0.025
8069,1054.77,0.025
8070,1054.86,0.025
8071,1054.94,0.025
8072,1055.02,0.025
8073,1055.11,0.025
8074,1055.19,0.025
8075,1055.27,0.025
8076,1055.36,0.025
8077,1055.44,0.025
8078,1055.53,0.025
8079,1055.61,0.025
8080,1055.69,0.025
8081,1055.78,0.025
8082,1055.86,0.025
8083,1055.94,0.025
8084,1056.02,0.025
8085,1056.10,0.025
8086,1056.19,0.025
8087,1056.27,0.025
8088,1056.35,0.025
8089,1056.44,0.025
8090,1056.52,0.025
8091,1056.61,0.025
8092,1056.69,0.025
8093,1056.77,0.025
8094,1056.86,0.025
8095,1056.94,0.025
8096,1057.03,0.025
8097,1057.11,0.025
8098,1057.19,0.025
8099,1057.28,0.025
8100,1057.36,0.025
8101,1057.44,0.025
8102,1057.53,0.025
8103,1057.61,0.025
8104,1057.69,0.025
8105,1057.78,0.025
8106,1057.86,0.025
8107,1057.94,0.025
8108,1058.02,0.025
8109,1058.11,0.025
8110,1058.19,0.025
8111,1058.27,0.025
8112,1058.36,0.025
8113,1058.44,0.025
8114,1058.52,0.025
8115,1058.61,0.025
8116,1058.69,0.025
8117,1058.77,0.025
8118,1058.86,0.025
8119,1058.94,0.025
8120,1059.02,0.025
8121,1059.11,0.025
8122,1059.19,0.025
8123,1059.28,0.025
8124,1059.36,0.025
8125,1059.44,0.025
8126,1059.53,0.025
8127,1059.60,0.025
8128,1059.69,0.025
8129,1059.78,0.025
8130,1059.85,0.025
8131,1059.93,0.025
8132,1060.02,0.025
8133,1060.11,0.025
8134,1060.19,0.025
8135,1060.28,0.025
8136,1060.36,0.025
8137,1060.44,0.025
8138,1060.53,0.025
8139,1060.60,0.025
8140,1060.68,0.025
8141,1060.77,0.025
8142,1060.86,0.025
8143,1060.94,0.025
8144,1061.02,0.025
8145,1061.10,0.025
8146,1061.19,0.025
8147,1061.27,0.025
8148,1061.36,0.025
8149,1061.44,0.025
8150,1061.52,0.025
8151,1061.61,0.025
8152,1061.69,0.025
8153,1061.77,0.025
8154,1061.85,0.025
8155,1061.94,0.025
8156,1062.03,0.025
8157,1062.11,0.025
8158,1062.19,0.025
8159,1062.27,0.025
8160,1062.35,0.025
8161,1062.44,0.025
8162,1062.52,0.025
8163,1062.60,0.025
8164,1062.69,0.025
8165,1062.77,0.025
8166,1062.86,0.025
8167,1062.94,0.025
8168,1063.02,0.025
8169,1063.10,0.025
8170,1063.20,0.025
8171,1063.27,0.025
8172,1063.35,0.025
8173,1063.45,0.025
8174,1063.53,0.025
8175,1063.60,0.025
8176,1063.69,0.025
8177,1063.78,0.025
8178,1063.86,0.025
8179,1063.94,0.025
8180,1064.03,0.025
8181,1064.10,0.025
8182,1064.19,0.025
8183,1064.28,0.025
8184,1064.36,0.025
8185,1064.44,0.025
8186,1064.52,0.025
8187,1064.60,0.025
8188,1064.69,0.025
8189,1064.77,0.025
8190,1064.86,0.025
8191,1064.94,0.025
8192,1065.03,0.025
8193,1065.10,0.025
8194,1065.18,0.025
8195,1065.28,0.025
8196,1065.36,0.025
8197,1065.44,0.025
8198,1065.53,0.025
8199,1065.61,0.025
8200,1065.69,0.025
8201,1065.78,0.025
8202,1065.85,0.025
8203,1065.94,0.025
8204,1066.02,0.025
8205,1066.11,0.025
8206,1066.19,0.025
8207,1066.27,0.025
8208,1066.36,0.025
8209,1066.44,0.025
8210,1066.52,0.025
8211,1066.61,0.025
8212,1066.69,0.025
8213,1066.77,0.025
8214,1066.86,0.025
8215,1066.94,0.025
8216,1067.02,0.025
8217,1067.10,0.025
8218,1067.19,0.025
8219,1067.27,0.025
8220,1067.35,0.025
8221,1067.44,0.025
8222,1067.52,0.025
8223,1067.61,0.025
8224,1067.69,0.025
8225,1067.77,0.025
8226,1067.86,0.025
8227,1067.94,0.025
8228,1068.02,0.025
8229,1068.11,0.025
8230,1068.19,0.025
8231,1068.28,0.025
8232,1068.36,0.025
8233,1068.44,0.025
8234,1068.53,0.025
8235,1068.61,0.025
8236,1068.69,0.025
8237,1068.77,0.025
8238,1068.85,0.025
8239,1068.94,0.025
8240,1069.02,0.025
8241,1069.10,0.025
8242,1069.19,0.025
8243,1069.27,0.025
8244,1069.35,0.025
8245,1069.44,0.025
8246,1069.52,0.025
8247,1069.61,0.025
8248,1069.69,0.025
8249,1069.78,0.025
8250,1069.86,0.025
8251,1069.94,0.025
8252,1070.03,0.025
8253,1070.11,0.025
8254,1070.19,0.025
8255,1070.27,0.025
8256,1070.36,0.025
8257,1070.44,0.025
8258,1070.53,0.025
8259,1070.61,0.024
8260,1070.69,0.024
8261,1070.77,0.024
8262,1070.86,0.024
8263,1070.94,0.024
8264,1071.03,0.024
8265,1071.11,0.024
8266,1071.19,0.024
8267,1071.28,0.024
8268,1071.36,0.024
8269,1071.44,0.024
8270,1071.52,0.024
8271,1071.60,0.024
8272,1071.69,0.024
8273,1071.77,0.024
8274,1071.85,0.024
8275,1071.94,0.024
8276,1072.03,0.024
8277,1072.10,0.024
8278,1072.19,0.024
8279,1072.27,0.024
8280,1072.36,0.024
8281,1072.44,0.024
8282,1072.52,0.024
8283,1072.61,0.024
8284,1072.69,0.024
8285,1072.78,0.024
8286,1072.86,0.024
8287,1072.93,0.024
8288,1073.02,0.024
8289,1073.11,0.024
8290,1073.19,0.024
8291,1073.28,0.024
8292,1073.36,0.024
8293,1073.43,0.024
8294,1073.52,0.024
8295,1073.61,0.024
8296,1073.68,0.024
8297,1073.77,0.024
8298,1073.86,0.024
8299,1073.94,0.024
8300,1074.02,0.024
8301,1074.11,0.024
8302,1074.19,0.024
8303,1074.27,0.024
8304,1074.36,0.024
8305,1074.44,0.024
8306,1074.53,0.024
8307,1074.61,0.024
8308,1074.69,0.024
8309,1074.78,0.024
8310,1074.85,0.024
8311,1074.93,0.024
8312,1075.02,0.024
8313,1075.11,0.024
8314,1075.20,0.024
8315,1075.28,0.024
8316,1075.35,0.024
8317,1075.43,0.024
8318,1075.52,0.024
8319,1075.61,0.025
8320,1075.69,0.025
8321,1075.77,0.025
8322,1075.86,0.025
8323,1075.94,0.025
8324,1076.03,0.025
8325,1076.10,0.025
8326,1076.20,0.025
8327,1076.27,0.025
8328,1076.35,0.025
8329,1076.44,0.025
8330,1076.53,0.025
8331,1076.61,0.025
8332,1076.69,0.025
8333,1076.78,0.025
8334,1076.86,0.025
8335,1076.94,0.025
8336,1077.03,0.025
8337,1077.11,0.025
8338,1077.19,0.025
8339,1077.28,0.025
8340,1077.36,0.025
8341,1077.44,0.025
8342,1077.52,0.025
8343,1077.60,0.025
8344,1077.68,0.025
8345,1077.77,0.025
8346,1077.86,0.025
8347,1077.94,0.025
8348,1078.02,0.025
8349,1078.11,0.025
8350,1078.19,0.025
8351,1078.27,0.025
8352,1078.36,0.025
8353,1078.44,0.025
8354,1078.52,0.025
8355,1078.61,0.025
8356,1078.69,0.025
8357,1078.77,0.025
8358,1078.85,0.025
8359,1078.94,0.025
8360,1079.03,0.025
8361,1079.10,0.025
8362,1079.19,0.025
8363,1079.27,0.025
8364,1079.36,0.025
8365,1079.44,0.025
8366,1079.53,0.025
8367,1079.60,0.025
8368,1079.68,0.025
8369,1079.77,0.025
8370,1079.86,0.025
8371,1079.94,0.025
8372,1080.02,0.025
8373,1080.11,0.025
8374,1080.20,0.025
8375,1080.27,0.025
8376,1080.35,0.025
8377,1080.44,0.025
8378,1080.53,0.025
8379,1080.60,0.025
8380,1080.69,0.025
8381,1080.77,0.025
8382,1080.86,0.025
8383,1080.94,0.025
8384,1081.03,0.025
8385,1081.11,0.025
8386,1081.20,0.025
8387,1081.27,0.025
8388,1081.35,0.025
8389,1081.43,0.025
8390,1081.52,0.025
8391,1081.61,0.025
8392,1081.69,0.025
8393,1081.77,0.025
8394,1081.85,0.025
8395,1081.94,0.025
8396,1082.03,0.025
8397,1082.10,0.025
8398,1082.19,0.025
8399,1082.27,0.025
8400,1082.36,0.025
8401,1082.44,0.025
8402,1082.52,0.025
8403,1082.61,0.025
8404,1082.69,0.025
8405,1082.77,0.025
8406,1082.86,0.025
8407,1082.94,0.025
8408,1083.03,0.025
8409,1083.11,0.025
8410,1083.19,0.025
8411,1083.27,0.025
8412,1083.36,0.025
8413,1083.44,0.025
8414,1083.53,0.025
8415,1083.61,0.025
8416,1083.69,0.025
8417,1083.77,0.025
8418,1083.85,0.025
8419,1083.94,0.025
8420,1084.02,0.025
8421,1084.10,0.025
8422,1084.19,0.025
8423,1084.27,0.025
8424,1084.36,0.025
8425,1084.44,0.025
8426,1084.52,0.025
8427,1084.61,0.025
8428,1084.69,0.025
8429,1084.78,0.025
8430,1084.85,0.025
8431,1084.94,0.025
8432,1085.03,0.025
8433,1085.11,0.025
8434,1085.19,0.025
8435,1085.27,0.025
8436,1085.36,0.025
8437,1085.45,0.025
8438,1085.52,0.025
8439,1085.61,0.025
8440,1085.69,0.025
8441,1085.78,0.025
8442,1085.86,0.025
8443,1085.93,0.025
8444,1086.02,0.025
8445,1086.11,0.025
8446,1086.19,0.025
8447,1086.27,0.025
8448,1086.36,0.025
8449,1086.44,0.025
8450,1086.52,0.025
8451,1086.61,0.025
8452,1086.69,0.025
8453,1086.78,0.025
8454,1086.86,0.025
8455,1086.94,0.025
8456,1087.02,0.025
8457,1087.11,0.025
8458,1087.19,0.025
8459,1087.28,0.025
8460,1087.35,0.025
8461,1087.44,0.025
8462,1087.52,0.025
8463,1087.61,0.025
8464,1087.69,0.025
8465,1087.77,0.025
8466,1087.85,0.025
8467,1087.93,0.025
8468,1088.02,0.025
8469,1088.10,0.025
8470,1088.18,0.025
8471,1088.28,0.025
8472,1088.36,0.025
8473,1088.43,0.025
8474,1088.53,0.025
8475,1088.60,0.025
8476,1088.69,0.025
8477,1088.77,0.025
8478,1088.86,0.025
8479,1088.94,0.025
8480,1089.03,0.025
8481,1089.11,0.025
8482,1089.19,0.025
8483,1089.28,0.025
8484,1089.36,0.025
8485,1089.44,0.025
8486,1089.53,0.025
8487,1089.61,0.025
8488,1089.69,0.025
8489,1089.77,0.025
8490,1089.86,0.025
8491,1089.94,0.025
8492,1090.02,0.025
8493,1090.10,0.025
8494,1090.19,0.025
8495,1090.28,0.025
8496,1090.35,0.025
8497,1090.44,0.025
8498,1090.53,0.025
8499,1090.60,0.025
8500,1090.69,0.025
8501,1090.78,0.025
8502,1090.85,0.025
8503,1090.94,0.025
8504,1091.02,0.025
8505,1091.11,0.025
8506,1091.19,0.025
8507,1091.27,0.025
8508,1091.36,0.025
8509,1091.44,0.025
8510,1091.53,0.025
8511,1091.61,0.025
8512,1091.69,0.025
8513,1091.77,0.025
8514,1091.85,0.025
8515,1091.93,0.025
8516,1092.02,0.025
8517,1092.10,0.025
8518,1092.19,0.025
8519,1092.27,0.025
8520,1092.35,0.025
8521,1092.44,0.025
8522,1092.52,0.025
8523,1092.60,0.025
8524,1092.70,0.025
8525,1092.77,0.025
8526,1092.86,0.025
8527,1092.95,0.025
8528,1093.02,0.025
8529,1093.11,0.025
8530,1093.19,0.025
8531,1093.27,0.025
8532,1093.35,0.025
8533,1093.44,0.025
8534,1093.53,0.025
8535,1093.61,0.025
8536,1093.69,0.025
8537,1093.77,0.025
8538,1093.85,0.025
8539,1093.94,0.025
8540,1094.03,0.025
8541,1094.11,0.025
8542,1094.18,0.025
8543,1094.27,0.025
8544,1094.35,0.025
8545,1094.44,0.025
8546,1094.52,0.025
8547,1094.61,0.025
8548,1094.70,0.025
8549,1094.77,0.025
8550,1094.85,0.025
8551,1094.94,0.025
8552,1095.02,0.025
8553,1095.11,0.025
8554,1095.19,0.025
8555,1095.28,0.025
8556,1095.36,0.025
8557,1095.44,0.025
8558,1095.53,0.025
8559,1095.61,0.025
8560,1095.69,0.025
8561,1095.78,0.025
8562,1095.86,0.025
8563,1095.94,0.025
8564,1096.02,0.025
8565,1096.10,0.025
8566,1096.19,0.025
8567,1096.27,0.025
8568,1096.35,0.025
8569,1096.44,0.025
8570,1096.52,0.025
8571,1096.61,0.025
8572,1096.69,0.025
8573,1096.77,0.025
8574,1096.86,0.025
8575,1096.94,0.025
8576,1097.02,0.025
8577,1097.11,0.025
8578,1097.19,0.025
8579,1097.28,0.025
8580,1097.35,0.025
8581,1097.44,0.025
8582,1097.52,0.025
8583,1097.61,0.025
8584,1097.69,0.025
8585,1097.78,0.025
8586,1097.86,0.025
8587,1097.94,0.025
8588,1098.02,0.025
8589,1098.10,0.025
8590,1098.18,0.025
8591,1098.27,0.025
8592,1098.35,0.025
8593,1098.44,0.025
8594,1098.52,0.025
8595,1098.61,0.025
8596,1098.69,0.025
8597,1098.78,0.025
8598,1098.86,0.025
8599,1098.94,0.025
8600,1099.03,0.025
8601,1099.11,0.025
8602,1099.19,0.025
8603,1099.28,0.025
8604,1099.36,0.025
8605,1099.44,0.025
8606,1099.53,0.025
8607,1099.61,0.025
8608,1099.70,0.025
8609,1099.77,0.025
8610,1099.85,0.025
8611,1099.93,0.025
8612,1100.02,0.025
8613,1100.11,0.025
8614,1100.19,0.025
8615,1100.27,0.025
8616,1100.35,0.025
8617,1100.44,0.025
8618,1100.52,0.025
8619,1100.61,0.025
8620,1100.69,0.024
8621,1100.77,0.024
8622,1100.86,0.024
8623,1100.94,0.024
8624,1101.02,0.024
8625,1101.11,0.024
8626,1101.20,0.024
8627,1101.27,0.024
8628,1101.35,0.024
8629,1101.44,0.024
8630,1101.53,0.024
8631,1101.61,0.024
8632,1101.69,0.024
8633,1101.77,0.024
8634,1101.85,0.024
8635,1101.94,0.024
8636,1102.03,0.024
8637,1102.10,0.024
8638,1102.19,0.024
8639,1102.27,0.024
8640,1102.36,0.024
8641,1102.44,0.024
8642,1102.52,0.024
8643,1102.61,0.024
8644,1102.69,0.024
8645,1102.77,0.024
8646,1102.86,0.024
8647,1102.94,0.024
8648,1103.03,0.024
8649,1103.11,0.024
8650,1103.19,0.024
8651,1103.27,0.024
8652,1103.37,0.024
8653,1103.44,0.024
8654,1103.52,0.024
8655,1103.61,0.024
8656,1103.69,0.024
8657,1103.78,0.024
8658,1103.86,0.024
8659,1103.94,0.024
8660,1104.02,0.024
8661,1104.11,0.024
8662,1104.19,0.024
8663,1104.27,0.024
8664,1104.36,0.024
8665,1104.44,0.025
8666,1104.52,0.025
8667,1104.61,0.025
8668,1104.69,0.025
8669,1104.77,0.025
8670,1104.86,0.025
8671,1104.94,0.025
8672,1105.02,0.025
8673,1105.11,0.025
8674,1105.19,0.025
8675,1105.27,0.025
8676,1105.36,0.025
8677,1105.44,0.025
8678,1105.52,0.025
8679,1105.61,0.025
8680,1105.69,0.025
8681,1105.77,0.025
8682,1105.86,0.025
8683,1105.94,0.025
8684,1106.02,0.025
8685,1106.10,0.025
8686,1106.19,0.025
8687,1106.27,0.025
8688,1106.36,0.025
8689,1106.44,0.025
8690,1106.52,0.025
8691,1106.61,0.025
8692,1106.69,0.025
8693,1106.77,0.025
8694,1106.86,0.025
8695,1106.94,0.025
8696,1107.02,0.025
8697,1107.11,0.025
8698,1107.19,0.025
8699,1107.27,0.025
8700,1107.36,0.025
8701,1107.44,0.025
8702,1107.52,0.025
8703,1107.60,0.025
8704,1107.68,0.025
8705,1107.77,0.025
8706,1107.86,0.025
8707,1107.94,0.025
8708,1108.02,0.025
8709,1108.11,0.025
8710,1108.19,0.025
8711,1108.27,0.025
8712,1108.36,0.025
8713,1108.44,0.025
8714,1108.53,0.025
8715,1108.61,0.025
8716,1108.69,0.025
8717,1108.77,0.025
8718,1108.86,0.025
8719,1108.94,0.025
8720,1109.02,0.025
8721,1109.11,0.025
8722,1109.19,0.025
8723,1109.28,0.025
8724,1109.36,0.025
8725,1109.44,0.025
8726,1109.52,0.025
8727,1109.61,0.025
8728,1109.69,0.025
8729,1109.77,0.025
8730,1109.85,0.025
8731,1109.94,0.025
8732,1110.02,0.025
8733,1110.11,0.025
8734,1110.18,0.025
8735,1110.27,0.025
8736,1110.36,0.025
8737,1110.44,0.025
8738,1110.52,0.025
8739,1110.61,0.025
8740,1110.69,0.025
8741,1110.77,0.025
8742,1110.85,0.025
8743,1110.94,0.025
8744,1111.03,0.025
8745,1111.10,0.025
8746,1111.18,0.025
8747,1111.27,0.025
8748,1111.35,0.025
8749,1111.44,0.025
8750,1111.52,0.025
8751,1111.60,0.025
8752,1111.68,0.025
8753,1111.77,0.025
8754,1111.86,0.025
8755,1111.93,0.025
8756,1112.02,0.025
8757,1112.11,0.025
8758,1112.19,0.025
8759,1112.28,0.025
8760,1112.35,0.025
8761,1112.44,0.025
8762,1112.53,0.025
8763,1112.60,0.025
8764,1112.69,0.025
8765,1112.78,0.025
8766,1112.85,0.025
8767,1112.93,0.025
8768,1113.02,0.025
8769,1113.11,0.025
8770,1113.19,0.025
8771,1113.27,0.025
8772,1113.36,0.025
8773,1113.44,0.025
8774,1113.52,0.025
8775,1113.60,0.025
8776,1113.69,0.025
8777,1113.77,0.025
8778,1113.85,0.025
8779,1113.94,0.025
8780,1114.02,0.025
8781,1114.10,0.025
8782,1114.19,0.025
8783,1114.27,0.025
8784,1114.36,0.025
8785,1114.44,0.025
8786,1114.53,0.025
8787,1114.61,0.025
8788,1114.69,0.025
8789,1114.78,0.025
8790,1114.86,0.025
8791,1114.94,0.025
8792,1115.02,0.025
8793,1115.10,0.025
8794,1115.19,0.025
8795,1115.27,0.025
8796,1115.35,0.025
8797,1115.43,0.025
8798,1115.52,0.025
8799,1115.60,0.025
8800,1115.69,0.025
8801,1115.77,0.025
8802,1115.85,0.025
8803,1115.94,0.025
8804,1116.02,0.025
8805,1116.10,0.025
8806,1116.20,0.025
8807,1116.27,0.025
8808,1116.35,0.025
8809,1116.44,0.025
8810,1116.53,0.025
8811,1116.60,0.025
8812,1116.69,0.025
8813,1116.78,0.025
8814,1116.86,0.025
8815,1116.94,0.025
8816,1117.03,0.025
8817,1117.11,0.025
8818,1117.19,0.025
8819,1117.28,0.025
8820,1117.36,0.025
8821,1117.44,0.025
8822,1117.52,0.025
8823,1117.60,0.025
8824,1117.68,0.025
8825,1117.77,0.025
8826,1117.86,0.025
8827,1117.93,0.025
8828,1118.02,0.025
8829,1118.11,0.025
8830,1118.18,0.025
8831,1118.27,0.025
8832,1118.36,0.025
8833,1118.44,0.025
8834,1118.53,0.025
8835,1118.61,0.025
8836,1118.69,0.025
8837,1118.78,0.025
8838,1118.86,0.025
8839,1118.93,0.025
8840,1119.01,0.025
8841,1119.10,0.025
8842,1119.18,0.025
8843,1119.27,0.025
8844,1119.35,0.025
8845,1119.43,0.025
8846,1119.52,0.025
8847,1119.61,0.025
8848,1119.69,0.025
8849,1119.77,0.025
8850,1119.86,0.025
8851,1119.94,0.025
8852,1120.03,0.025
8853,1120.11,0.025
8854,1120.19,0.025
8855,1120.28,0.025
8856,1120.35,0.025
8857,1120.44,0.025
8858,1120.53,0.025
8859,1120.61,0.025
8860,1120.69,0.025
8861,1120.77,0.025
8862,1120.86,0.025
8863,1120.94,0.025
8864,1121.02,0.025
8865,1121.10,0.025
8866,1121.18,0.025
8867,1121.27,0.025
8868,1121.35,0.025
8869,1121.43,0.025
8870,1121.52,0.025
8871,1121.60,0.025
8872,1121.69,0.025
8873,1121.77,0.025
8874,1121.86,0.025
8875,1121.94,0.025
8876,1122.03,0.025
8877,1122.11,0.025
8878,1122.19,0.025
8879,1122.27,0.025
8880,1122.36,0.025
8881,1122.44,0.025
8882,1122.52,0.025
8883,1122.60,0.025
8884,1122.69,0.025
8885,1122.77,0.025
8886,1122.86,0.025
8887,1122.94,0.025
8888,1123.02,0.025
8889,1123.10,0.025
8890,1123.19,0.025
8891,1123.27,0.025
8892,1123.35,0.025
8893,1123.44,0.025
8894,1123.52,0.025
8895,1123.61,0.025
8896,1123.69,0.025
8897,1123.77,0.025
8898,1123.86,0.025
8899,1123.94,0.025
8900,1124.02,0.025
8901,1124.11,0.025
8902,1124.19,0.025
8903,1124.27,0.025
8904,1124.36,0.025
8905,1124.44,0.025
8906,1124.52,0.025
8907,1124.60,0.025
8908,1124.68,0.025
8909,1124.77,0.025
8910,1124.85,0.025
8911,1124.94,0.025
8912,1125.02,0.025
8913,1125.10,0.025
8914,1125.19,0.025
8915,1125.27,0.025
8916,1125.36,0.025
8917,1125.43,0.025
8918,1125.52,0.025
8919,1125.61,0.025
8920,1125.69,0.025
8921,1125.78,0.025
8922,1125.86,0.025
8923,1125.94,0.025
8924,1126.02,0.025
8925,1126.11,0.025
8926,1126.19,0.025
8927,1126.28,0.025
8928,1126.35,0.025
8929,1126.44,0.025
8930,1126.52,0.025
8931,1126.60,0.025
8932,1126.68,0.025
8933,1126.77,0.025
8934,1126.85,0.025
8935,1126.94,0.025
8936,1127.02,0.025
8937,1127.11,0.025
8938,1127.19,0.025
8939,1127.27,0.025
8940,1127.35,0.025
8941,1127.45,0.025
8942,1127.52,0.025
8943,1127.61,0.025
8944,1127.69,0.025
8945,1127.77,0.025
8946,1127.86,0.025
8947,1127.94,0.025
8948,1128.03,0.025
8949,1128.11,0.025
8950,1128.19,0.025
8951,1128.27,0.025
8952,1128.35,0.025
8953,1128.44,0.025
8954,1128.52,0.025
8955,1128.60,0.025
8956,1128.69,0.025
8957,1128.77,0.025
8958,1128.85,0.025
8959,1128.94,0.025
8960,1129.02,0.025
8961,1129.11,0.025
8962,1129.19,0.025
8963,1129.27,0.025
8964,1129.35,0.025
8965,1129.44,0.025
8966,1129.53,0.025
8967,1129.61,0.025
8968,1129.69,0.025
8969,1129.78,0.025
8970,1129.85,0.025
8971,1129.94,0.025
8972,1130.02,0.025
8973,1130.11,0.025
8974,1130.19,0.025
8975,1130.28,0.025
8976,1130.36,0.025
8977,1130.43,0.025
8978,1130.51,0.025
8979,1130.60,0.025
8980,1130.68,0.025
8981,1130.77,0.025
8982,1130.86,0.025
8983,1130.93,0.025
8984,1131.02,0.025
8985,1131.11,0.025
8986,1131.19,0.025
8987,1131.28,0.025
8988,1131.36,0.025
8989,1131.44,0.025
8990,1131.52,0.025
8991,1131.61,0.025
8992,1131.69,0.025
8993,1131.77,0.025
8994,1131.85,0.025
8995,1131.94,0.025
8996,1132.02,0.025
8997,1132.10,0.025
8998,1132.19,0.025
8999,1132.27,0.025
9000,1132.36,0.025
9001,1132.44,0.025
9002,1132.52,0.025
9003,1132.61,0.025
9004,1132.69,0.025
9005,1132.77,0.025
9006,1132.85,0.025
9007,1132.94,0.025
9008,1133.02,0.025
9009,1133.10,0.025
9010,1133.19,0.025
9011,1133.27,0.025
9012,1133.36,0.025
9013,1133.43,0.025
9014,1133.52,0.025
9015,1133.60,0.025
9016,1133.69,0.025
9017,1133.77,0.025
9018,1133.85,0.025
9019,1133.93,0.025
9020,1134.02,0.025
9021,1134.10,0.025
9022,1134.19,0.025
9023,1134.27,0.025
9024,1134.36,0.025
9025,1134.44,0.025
9026,1134.52,0.024
9027,1134.60,0.024
9028,1134.69,0.024
9029,1134.78,0.024
9030,1134.85,0.024
9031,1134.94,0.024
9032,1135.03,0.024
9033,1135.10,0.024
9034,1135.19,0.024
9035,1135.28,0.024
9036,1135.36,0.024
9037,1135.44,0.024
9038,1135.52,0.024
9039,1135.60,0.024
9040,1135.69,0.024
9041,1135.77,0.024
9042,1135.86,0.024
9043,1135.94,0.024
9044,1136.02,0.024
9045,1136.10,0.024
9046,1136.19,0.024
9047,1136.27,0.024
9048,1136.35,0.024
9049,1136.44,0.024
9050,1136.53,0.024
9051,1136.60,0.025
9052,1136.69,0.025
9053,1136.78,0.025
9054,1136.85,0.024
9055,1136.94,0.024
9056,1137.03,0.024
9057,1137.11,0.024
9058,1137.19,0.024
9059,1137.27,0.024
9060,1137.36,0.024
9061,1137.44,0.024
9062,1137.52,0.024
9063,1137.60,0.024
9064,1137.68,0.024
9065,1137.77,0.024
9066,1137.85,0.024
9067,1137.94,0.024
9068,1138.02,0.024
9069,1138.10,0.024
9070,1138.19,0.024
9071,1138.27,0.024
9072,1138.35,0.024
9073,1138.44,0.024
9074,1138.52,0.024
9075,1138.61,0.024
9076,1138.69,0.024
9077,1138.77,0.024
9078,1138.86,0.024
9079,1138.95,0.024
9080,1139.02,0.024
9081,1139.10,0.024
9082,1139.18,0.024
9083,1139.27,0.024
9084,1139.35,0.024
9085,1139.44,0.024
9086,1139.52,0.024
9087,1139.60,0.024
9088,1139.69,0.024
9089,1139.77,0.024
9090,1139.85,0.024
9091,1139.94,0.024
9092,1140.02,0.024
9093,1140.11,0.024
9094,1140.19,0.024
9095,1140.27,0.024
9096,1140.36,0.024
9097,1140.45,0.024
9098,1140.52,0.024
9099,1140.61,0.024
9100,1140.70,0.024
9101,1140.78,0.024
9102,1140.85,0.024
9103,1140.93,0.024
9104,1141.02,0.024
9105,1141.11,0.024
9106,1141.19,0.024
9107,1141.27,0.024
9108,1141.35,0.024
9109,1141.44,0.024
9110,1141.52,0.024
9111,1141.61,0.024
9112,1141.68,0.024
9113,1141.77,0.024
9114,1141.86,0.024
9115,1141.94,0.024
9116,1142.03,0.024
9117,1142.10,0.024
9118,1142.19,0.024
9119,1142.28,0.024
9120,1142.36,0.024
9121,1142.44,0.024
9122,1142.53,0.025
9123,1142.61,0.025
9124,1142.69,0.025
9125,1142.76,0.025
9126,1142.85,0.024
9127,1142.94,0.024
9128,1143.02,0.024
9129,1143.10,0.024
9130,1143.19,0.024
9131,1143.27,0.024
9132,1143.35,0.024
9133,1143.44,0.024
9134,1143.52,0.024
9135,1143.61,0.024
9136,1143.69,0.024
9137,1143.77,0.024
9138,1143.86,0.024
9139,1143.95,0.024
9140,1144.02,0.024
9141,1144.10,0.024
9142,1144.19,0.024
9143,1144.28,0.024
9144,1144.36,0.024
9145,1144.44,0.024
9146,1144.53,0.024
9147,1144.61,0.024
9148,1144.69,0.024
9149,1144.76,0.024
9150,1144.85,0.024
9151,1144.94,0.024
9152,1145.02,0.024
9153,1145.10,0.024
9154,1145.19,0.024
9155,1145.27,0.024
9156,1145.36,0.024
9157,1145.43,0.024
9158,1145.53,0.024
9159,1145.61,0.024
9160,1145.69,0.024
9161,1145.77,0.024
9162,1145.86,0.024
9163,1145.94,0.024
9164,1146.02,0.024
9165,1146.11,0.024
9166,1146.20,0.024
9167,1146.28,0.024
9168,1146.36,0.024
9169,1146.44,0.024
9170,1146.51,0.024
9171,1146.60,0.024
9172,1146.69,0.024
9173,1146.76,0.024
9174,1146.85,0.024
9175,1146.94,0.024
9176,1147.02,0.024
9177,1147.11,0.024
9178,1147.18,0.024
9179,1147.27,0.024
9180,1147.36,0.024
9181,1147.43,0.024
9182,1147.52,0.024
9183,1147.61,0.024
9184,1147.69,0.024
9185,1147.77,0.024
9186,1147.86,0.024
9187,1147.94,0.024
9188,1148.02,0.024
9189,1148.10,0.024
9190,1148.19,0.024
9191,1148.26,0.024
9192,1148.36,0.024
9193,1148.44,0.024
9194,1148.52,0.024
9195,1148.60,0.024
9196,1148.69,0.024
9197,1148.77,0.024
9198,1148.86,0.024
9199,1148.94,0.024
9200,1149.02,0.024
9201,1149.11,0.024
9202,1149.19,0.024
9203,1149.27,0.024
9204,1149.36,0.024
9205,1149.44,0.024
9206,1149.52,0.024
9207,1149.61,0.024
9208,1149.69,0.024
9209,1149.78,0.024
9210,1149.86,0.024
9211,1149.94,0.024
9212,1150.02,0.024
9213,1150.09,0.024
9214,1150.19,0.024
9215,1150.27,0.024
9216,1150.35,0.024
9217,1150.44,0.024
9218,1150.52,0.024
9219,1150.60,0.024
9220,1150.69,0.024
9221,1150.77,0.024
9222,1150.85,0.024
9223,1150.94,0.024
9224,1151.03,0.024
9225,1151.10,0.024
9226,1151.18,0.024
9227,1151.27,0.024
9228,1151.35,0.024
9229,1151.44,0.024
9230,1151.52,0.024
9231,1151.60,0.024
9232,1151.69,0.024
9233,1151.78,0.024
9234,1151.85,0.024
9235,1151.94,0.024
9236,1152.02,0.024
9237,1152.10,0.024
9238,1152.20,0.024
9239,1152.27,0.024
9240,1152.35,0.024
9241,1152.45,0.024
9242,1152.52,0.024
9243,1152.61,0.024
9244,1152.69,0.024
9245,1152.77,0.024
9246,1152.86,0.024
9247,1152.94,0.024
9248,1153.02,0.024
9249,1153.10,0.024
9250,1153.18,0.024
9251,1153.27,0.024
9252,1153.36,0.024
9253,1153.44,0.024
9254,1153.52,0.024
9255,1153.61,0.024
9256,1153.69,0.024
9257,1153.77,0.024
9258,1153.85,0.024
9259,1153.94,0.024
9260,1154.02,0.024
9261,1154.11,0.024
9262,1154.19,0.024
9263,1154.27,0.024
9264,1154.36,0.024
9265,1154.44,0.024
9266,1154.52,0.024
9267,1154.60,0.024
9268,1154.69,0.024
9269,1154.77,0.024
9270,1154.85,0.024
9271,1154.94,0.024
9272,1155.01,0.024
9273,1155.10,0.024
9274,1155.19,0.024
9275,1155.27,0.024
9276,1155.35,0.024
9277,1155.44,0.024
9278,1155.52,0.024
9279,1155.60,0.024
9280,1155.69,0.024
9281,1155.77,0.024
9282,1155.86,0.024
9283,1155.94,0.024
9284,1156.02,0.024
9285,1156.11,0.024
9286,1156.20,0.023
9287,1156.27,0.023
9288,1156.35,0.023
9289,1156.44,0.023
9290,1156.52,0.023
9291,1156.61,0.023
9292,1156.68,0.023
9293,1156.77,0.023
9294,1156.85,0.023
9295,1156.94,0.023
9296,1157.02,0.023
9297,1157.11,0.023
9298,1157.19,0.023
9299,1157.27,0.023
9300,1157.35,0.023
9301,1157.44,0.023
9302,1157.52,0.023
9303,1157.61,0.023
9304,1157.69,0.023
9305,1157.78,0.023
9306,1157.86,0.023
9307,1157.94,0.023
9308,1158.02,0.023
9309,1158.11,0.023
9310,1158.19,0.023
9311,1158.28,0.023
9312,1158.36,0.023
9313,1158.44,0.023
9314,1158.51,0.023
9315,1158.60,0.023
9316,1158.69,0.023
9317,1158.77,0.023
9318,1158.85,0.023
9319,1158.94,0.023
9320,1159.02,0.023
9321,1159.10,0.023
9322,1159.19,0.023
9323,1159.27,0.023
9324,1159.35,0.023
9325,1159.44,0.023
9326,1159.52,0.023
9327,1159.61,0.023
9328,1159.69,0.023
9329,1159.77,0.023
9330,1159.85,0.023
9331,1159.93,0.023
9332,1160.01,0.023
9333,1160.10,0.023
9334,1160.18,0.023
9335,1160.27,0.023
9336,1160.35,0.023
9337,1160.44,0.023
9338,1160.52,0.023
9339,1160.60,0.023
9340,1160.69,0.023
9341,1160.77,0.023
9342,1160.85,0.023
9343,1160.94,0.023
9344,1161.03,0.023
9345,1161.10,0.023
9346,1161.19,0.023
9347,1161.27,0.023
9348,1161.36,0.023
9349,1161.44,0.023
9350,1161.53,0.023
9351,1161.61,0.023
9352,1161.68,0.023
9353,1161.77,0.023
9354,1161.85,0.023
9355,1161.93,0.023
9356,1162.02,0.023
9357,1162.11,0.023
9358,1162.18,0.023
9359,1162.28,0.023
9360,1162.36,0.023
9361,1162.43,0.023
9362,1162.53,0.023
9363,1162.60,0.023
9364,1162.70,0.023
9365,1162.77,0.023
9366,1162.85,0.023
9367,1162.94,0.023
9368,1163.03,0.023
9369,1163.11,0.023
9370,1163.19,0.023
9371,1163.27,0.023
9372,1163.36,0.023
9373,1163.44,0.023
9374,1163.51,0.023
9375,1163.60,0.023
9376,1163.69,0.023
9377,1163.77,0.023
9378,1163.85,0.023
9379,1163.94,0.023
9380,1164.02,0.023
9381,1164.10,0.023
9382,1164.19,0.023
9383,1164.27,0.023
9384,1164.35,0.023
9385,1164.44,0.023
9386,1164.52,0.023
9387,1164.61,0.023
9388,1164.69,0.023
9389,1164.77,0.023
9390,1164.85,0.023
9391,1164.93,0.023
9392,1165.02,0.023
9393,1165.09,0.023
9394,1165.19,0.023
9395,1165.28,0.023
9396,1165.35,0.023
9397,1165.43,0.023
9398,1165.53,0.023
9399,1165.61,0.023
9400,1165.68,0.023
9401,1165.77,0.023
9402,1165.85,0.023
9403,1165.94,0.023
9404,1166.03,0.023
9405,1166.10,0.023
9406,1166.18,0.023
9407,1166.27,0.023
9408,1166.36,0.023
9409,1166.44,0.023
9410,1166.53,0.023
9411,1166.61,0.023
9412,1166.69,0.023
9413,1166.77,0.023
9414,1166.85,0.023
9415,1166.93,0.023
9416,1167.01,0.023
9417,1167.11,0.023
9418,1167.19,0.023
9419,1167.27,0.023
9420,1167.36,0.023
9421,1167.44,0.023
9422,1167.52,0.023
9423,1167.60,0.023
9424,1167.69,0.023
9425,1167.78,0.023
9426,1167.85,0.023
9427,1167.93,0.023
9428,1168.01,0.023
9429,1168.10,0.023
9430,1168.18,0.023
9431,1168.27,0.023
9432,1168.35,0.023
9433,1168.43,0.023
9434,1168.52,0.023
9435,1168.60,0.023
9436,1168.69,0.023
9437,1168.77,0.023
9438,1168.85,0.023
9439,1168.94,0.023
9440,1169.02,0.023
9441,1169.11,0.023
9442,1169.19,0.023
9443,1169.27,0.023
9444,1169.36,0.023
9445,1169.45,0.023
9446,1169.52,0.023
9447,1169.60,0.023
9448,1169.68,0.023
9449,1169.76,0.023
9450,1169.86,0.023
9451,1169.94,0.023
9452,1170.02,0.023
9453,1170.11,0.023
9454,1170.18,0.023
9455,1170.27,0.023
9456,1170.35,0.023
9457,1170.44,0.023
9458,1170.52,0.023
9459,1170.60,0.023
9460,1170.69,0.023
9461,1170.77,0.023
9462,1170.86,0.023
9463,1170.94,0.023
9464,1171.02,0.023
9465,1171.11,0.023
9466,1171.20,0.023
9467,1171.27,0.023
9468,1171.35,0.023
9469,1171.43,0.023
9470,1171.52,0.023
9471,1171.60,0.023
9472,1171.68,0.023
9473,1171.77,0.023
9474,1171.86,0.023
9475,1171.94,0.023
9476,1172.01,0.023
9477,1172.11,0.023
9478,1172.19,0.023
9479,1172.27,0.023