Time (s),Sample Temperature (K),Weight (mg)
0,383.15,4.299
1,383.15,4.299
2,383.15,4.299
3,383.15,4.299
4,383.14,4.299
5,383.15,4.299
6,383.15,4.299
7,383.15,4.299
8,383.15,4.299
9,383.19,4.300
10,383.26,4.300
11,383.43,4.300
12,383.63,4.300
13,383.86,4.300
14,384.13,4.300
15,384.39,4.300
16,384.66,4.300
17,384.91,4.301
18,385.18,4.301
19,385.45,4.301
20,385.73,4.301
21,386.00,4.301
22,386.28,4.301
23,386.56,4.301
24,386.84,4.301
25,387.12,4.302
26,387.41,4.302
27,387.69,4.302
28,387.98,4.302
29,388.27,4.302
30,388.56,4.302
31,388.85,4.302
32,389.15,4.302
33,389.43,4.302
34,389.73,4.302
35,390.02,4.302
36,390.33,4.302
37,390.64,4.302
38,390.93,4.302
39,391.23,4.302
40,391.53,4.302
41,391.84,4.302
42,392.15,4.302
43,392.46,4.302
44,392.77,4.302
45,393.08,4.302
46,393.39,4.302
47,393.70,4.302
48,394.01,4.302
49,394.32,4.302
50,394.63,4.302
51,394.95,4.302
52,395.27,4.302
53,395.59,4.302
54,395.91,4.302
55,396.23,4.302
56,396.55,4.302
57,396.87,4.302
58,397.18,4.302
59,397.51,4.302
60,397.83,4.302
61,398.16,4.301
62,398.48,4.301
63,398.80,4.301
64,399.12,4.301
65,399.45,4.301
66,399.78,4.301
67,400.10,4.301
68,400.43,4.301
69,400.75,4.301
70,401.07,4.301
71,401.41,4.301
72,401.74,4.301
73,402.07,4.301
74,402.39,4.301
75,402.72,4.301
76,403.05,4.301
77,403.38,4.301
78,403.71,4.301
79,404.04,4.301
80,404.37,4.301
81,404.71,4.301
82,405.03,4.301
83,405.36,4.301
84,405.70,4.301
85,406.03,4.301
86,406.36,4.301
87,406.70,4.301
88,407.03,4.301
89,407.36,4.301
90,407.69,4.301
91,408.03,4.301
92,408.36,4.300
93,408.70,4.300
94,409.03,4.300
95,409.36,4.300
96,409.69,4.300
97,410.03,4.300
98,410.36,4.300
99,410.71,4.300
100,411.04,4.300
101,411.38,4.300
102,411.71,4.300
103,412.04,4.300
104,412.37,4.300
105,412.71,4.300
106,413.05,4.300
107,413.39,4.300
108,413.73,4.300
109,414.06,4.300
110,414.39,4.300
111,414.73,4.300
112,415.06,4.300
113,415.40,4.300
114,415.74,4.299
115,416.08,4.299
116,416.41,4.299
117,416.75,4.299
118,417.08,4.299
119,417.42,4.299
120,417.76,4.299
121,418.09,4.299
122,418.42,4.299
123,418.76,4.299
124,419.10,4.299
125,419.44,4.299
126,419.78,4.299
127,420.12,4.299
128,420.46,4.299
129,420.79,4.299
130,421.12,4.299
131,421.46,4.299
132,421.81,4.298
133,422.14,4.298
134,422.48,4.298
135,422.81,4.298
136,423.15,4.298
137,423.49,4.298
138,423.83,4.298
139,424.17,4.298
140,424.51,4.298
141,424.84,4.298
142,425.17,4.298
143,425.51,4.298
144,425.85,4.298
145,426.19,4.297
146,426.53,4.297
147,426.86,4.297
148,427.20,4.297
149,427.54,4.297
150,427.87,4.297
151,428.20,4.297
152,428.54,4.297
153,428.87,4.297
154,429.21,4.297
155,429.55,4.297
156,429.89,4.296
157,430.23,4.296
158,430.56,4.296
159,430.89,4.296
160,431.23,4.296
161,431.57,4.296
162,431.90,4.296
163,432.24,4.296
164,432.57,4.296
165,432.91,4.295
166,433.24,4.295
167,433.58,4.295
168,433.92,4.295
169,434.25,4.295
170,434.59,4.295
171,434.92,4.295
172,435.26,4.295
173,435.60,4.294
174,435.94,4.294
175,436.27,4.294
176,436.60,4.294
177,436.94,4.294
178,437.27,4.294
179,437.61,4.294
180,437.95,4.294
181,438.28,4.293
182,438.62,4.293
183,438.96,4.293
184,439.29,4.293
185,439.62,4.293
186,439.96,4.293
187,440.30,4.292
188,440.64,4.292
189,440.97,4.292
190,441.31,4.292
191,441.64,4.292
192,441.98,4.292
193,442.31,4.291
194,442.65,4.291
195,442.99,4.291
196,443.33,4.291
197,443.66,4.291
198,443.99,4.291
199,444.33,4.290
200,444.67,4.290
201,445.00,4.290
202,445.34,4.290
203,445.68,4.290
204,446.01,4.289
205,446.35,4.289
206,446.69,4.289
207,447.02,4.289
208,447.35,4.289
209,447.69,4.288
210,448.02,4.288
211,448.37,4.288
212,448.70,4.288
213,449.04,4.287
214,449.38,4.287
215,449.71,4.287
216,450.04,4.287
217,450.38,4.286
218,450.71,4.286
219,451.05,4.286
220,451.39,4.286
221,451.73,4.285
222,452.06,4.285
223,452.40,4.285
224,452.73,4.285
225,453.07,4.284
226,453.40,4.284
227,453.74,4.284
228,454.08,4.284
229,454.41,4.283
230,454.75,4.283
231,455.09,4.283
232,455.42,4.282
233,455.76,4.282
234,456.09,4.282
235,456.43,4.282
236,456.76,4.281
237,457.10,4.281
238,457.44,4.281
239,457.78,4.280
240,458.11,4.280
241,458.44,4.280
242,458.78,4.279
243,459.11,4.279
244,459.46,4.279
245,459.79,4.278
246,460.13,4.278
247,460.46,4.278
248,460.79,4.277
249,461.13,4.277
250,461.47,4.277
251,461.81,4.276
252,462.14,4.276
253,462.49,4.276
254,462.81,4.275
255,463.15,4.275
256,463.49,4.275
257,463.82,4.274
258,464.16,4.274
259,464.49,4.273
260,464.83,4.273
261,465.17,4.273
262,465.51,4.272
263,465.84,4.272
264,466.17,4.271
265,466.51,4.271
266,466.85,4.271
267,467.19,4.270
268,467.53,4.270
269,467.85,4.269
270,468.19,4.269
271,468.52,4.269
272,468.86,4.268
273,469.20,4.268
274,469.53,4.267
275,469.87,4.267
276,470.20,4.266
277,470.54,4.266
278,470.88,4.265
279,471.22,4.265
280,471.56,4.264
281,471.89,4.264
282,472.22,4.263
283,472.56,4.263
284,472.90,4.263
285,473.24,4.262
286,473.57,4.262
287,473.90,4.261
288,474.24,4.260
289,474.57,4.260
290,474.91,4.259
291,475.25,4.259
292,475.59,4.258
293,475.92,4.258
294,476.26,4.257
295,476.59,4.257
296,476.93,4.256
297,477.27,4.256
298,477.61,4.255
299,477.94,4.254
300,478.27,4.254
301,478.61,4.253
302,478.95,4.253
303,479.29,4.252
304,479.62,4.251
305,479.95,4.251
306,480.28,4.250
307,480.62,4.250
308,480.96,4.249
309,481.29,4.248
310,481.63,4.248
311,481.97,4.247
312,482.31,4.246
313,482.64,4.246
314,482.98,4.245
315,483.31,4.244
316,483.64,4.244
317,483.99,4.243
318,484.32,4.242
319,484.66,4.242
320,484.99,4.241
321,485.33,4.240
322,485.66,4.239
323,486.00,4.239
324,486.34,4.238
325,486.68,4.237
326,487.01,4.236
327,487.34,4.236
328,487.68,4.235
329,488.02,4.234
330,488.35,4.234
331,488.69,4.233
332,489.03,4.232
333,489.36,4.231
334,489.70,4.230
335,490.03,4.229
336,490.37,4.229
337,490.71,4.228
338,491.04,4.227
339,491.38,4.226
340,491.71,4.225
341,492.05,4.224
342,492.39,4.224
343,492.72,4.223
344,493.05,4.222
345,493.39,4.221
346,493.73,4.220
347,494.07,4.219
348,494.40,4.218
349,494.73,4.218
350,495.07,4.217
351,495.41,4.216
352,495.75,4.215
353,496.08,4.214
354,496.41,4.213
355,496.75,4.212
356,497.08,4.211
357,497.42,4.210
358,497.76,4.209
359,498.10,4.208
360,498.44,4.207
361,498.77,4.206
362,499.10,4.205
363,499.44,4.204
364,499.78,4.203
365,500.11,4.202
366,500.45,4.201
367,500.78,4.200
368,501.11,4.199
369,501.46,4.198
370,501.79,4.197
371,502.13,4.195
372,502.47,4.194
373,502.80,4.193
374,503.13,4.192
375,503.47,4.191
376,503.81,4.190
377,504.15,4.189
378,504.49,4.188
379,504.82,4.187
380,505.15,4.186
381,505.49,4.185
382,505.83,4.183
383,506.16,4.182
384,506.49,4.181
385,506.83,4.180
386,507.17,4.179
387,507.51,4.178
388,507.85,4.177
389,508.18,4.175
390,508.51,4.174
391,508.84,4.173
392,509.18,4.172
393,509.52,4.171
394,509.86,4.169
395,510.20,4.168
396,510.53,4.167
397,510.86,4.166
398,511.20,4.164
399,511.53,4.163
400,511.87,4.162
401,512.21,4.161
402,512.55,4.159
403,512.88,4.158
404,513.21,4.157
405,513.55,4.155
406,513.89,4.154
407,514.23,4.153
408,514.56,4.151
409,514.90,4.150
410,515.23,4.149
411,515.57,4.147
412,515.90,4.146
413,516.24,4.144
414,516.58,4.143
415,516.91,4.142
416,517.25,4.140
417,517.58,4.139
418,517.92,4.137
419,518.25,4.136
420,518.59,4.134
421,518.93,4.133
422,519.26,4.131
423,519.60,4.130
424,519.94,4.128
425,520.27,4.127
426,520.60,4.125
427,520.94,4.124
428,521.28,4.122
429,521.62,4.120
430,521.95,4.119
431,522.29,4.117
432,522.63,4.116
433,522.96,4.114
434,523.29,4.112
435,523.63,4.111
436,523.97,4.109
437,524.30,4.107
438,524.64,4.106
439,524.98,4.104
440,525.31,4.102
441,525.64,4.100
442,525.98,4.099
443,526.32,4.097
444,526.65,4.095
445,526.99,4.093
446,527.33,4.091
447,527.66,4.089
448,528.00,4.087
449,528.33,4.085
450,528.67,4.083
451,529.01,4.081
452,529.34,4.080
453,529.68,4.078
454,530.02,4.076
455,530.35,4.074
456,530.69,4.071
457,531.02,4.069
458,531.36,4.067
459,531.69,4.065
460,532.03,4.063
461,532.36,4.061
462,532.70,4.059
463,533.03,4.057
464,533.37,4.054
465,533.71,4.052
466,534.05,4.050
467,534.38,4.048
468,534.72,4.045
469,535.05,4.043
470,535.38,4.041
471,535.72,4.038
472,536.06,4.036
473,536.40,4.034
474,536.74,4.031
475,537.07,4.029
476,537.40,4.026
477,537.74,4.024
478,538.08,4.021
479,538.41,4.019
480,538.74,4.016
481,539.09,4.013
482,539.42,4.011
483,539.76,4.008
484,540.09,4.006
485,540.42,4.003
486,540.76,4.000
487,541.10,3.998
488,541.44,3.995
489,541.78,3.992
490,542.11,3.989
491,542.44,3.987
492,542.77,3.984
493,543.11,3.981
494,543.46,3.978
495,543.80,3.975
496,544.13,3.972
497,544.45,3.969
498,544.79,3.966
499,545.13,3.963
500,545.47,3.960
501,545.80,3.957
502,546.14,3.954
503,546.48,3.951
504,546.81,3.948
505,547.15,3.945
506,547.48,3.942
507,547.82,3.939
508,548.16,3.935
509,548.49,3.932
510,548.83,3.929
511,549.16,3.926
512,549.50,3.923
513,549.84,3.919
514,550.17,3.916
515,550.51,3.913
516,550.84,3.910
517,551.18,3.906
518,551.51,3.903
519,551.85,3.900
520,552.19,3.896
521,552.52,3.893
522,552.86,3.889
523,553.19,3.886
524,553.53,3.883
525,553.87,3.879
526,554.20,3.876
527,554.53,3.872
528,554.87,3.868
529,555.21,3.865
530,555.54,3.861
531,555.88,3.858
532,556.22,3.854
533,556.55,3.850
534,556.89,3.847
535,557.23,3.843
536,557.56,3.839
537,557.90,3.836
538,558.24,3.832
539,558.56,3.828
540,558.90,3.824
541,559.24,3.820
542,559.57,3.817
543,559.91,3.813
544,560.25,3.809
545,560.58,3.805
546,560.92,3.801
547,561.26,3.797
548,561.60,3.793
549,561.93,3.789
550,562.26,3.785
551,562.60,3.781
552,562.94,3.777
553,563.28,3.773
554,563.62,3.769
555,563.94,3.765
556,564.27,3.761
557,564.62,3.756
558,564.95,3.752
559,565.29,3.748
560,565.63,3.744
561,565.96,3.740
562,566.29,3.735
563,566.63,3.731
564,566.96,3.727
565,567.31,3.722
566,567.64,3.718
567,567.97,3.714
568,568.31,3.709
569,568.65,3.705
570,568.99,3.701
571,569.32,3.696
572,569.65,3.692
573,569.98,3.687
574,570.32,3.683
575,570.67,3.678
576,571.01,3.673
577,571.34,3.669
578,571.67,3.664
579,572.00,3.660
580,572.34,3.655
581,572.68,3.650
582,573.02,3.645
583,573.35,3.641
584,573.68,3.636
585,574.02,3.631
586,574.36,3.626
587,574.70,3.622
588,575.02,3.617
589,575.36,3.612
590,575.70,3.607
591,576.04,3.602
592,576.37,3.597
593,576.71,3.592
594,577.05,3.587
595,577.39,3.582
596,577.73,3.577
597,578.05,3.572
598,578.39,3.567
599,578.72,3.562
600,579.06,3.557
601,579.40,3.551
602,579.74,3.546
603,580.07,3.541
604,580.40,3.536
605,580.74,3.530
606,581.08,3.525
607,581.41,3.520
608,581.75,3.514
609,582.08,3.509
610,582.42,3.503
611,582.75,3.498
612,583.09,3.492
613,583.42,3.487
614,583.77,3.481
615,584.11,3.476
616,584.44,3.470
617,584.77,3.464
618,585.10,3.459
619,585.44,3.453
620,585.78,3.447
621,586.12,3.441
622,586.45,3.435
623,586.79,3.429
624,587.12,3.423
625,587.46,3.417
626,587.79,3.411
627,588.13,3.405
628,588.47,3.399
629,588.80,3.393
630,589.14,3.387
631,589.47,3.381
632,589.81,3.375
633,590.14,3.368
634,590.48,3.362
635,590.81,3.355
636,591.16,3.349
637,591.49,3.343
638,591.83,3.336
639,592.16,3.329
640,592.50,3.323
641,592.83,3.316
642,593.17,3.309
643,593.51,3.302
644,593.84,3.296
645,594.17,3.289
646,594.51,3.282
647,594.85,3.275
648,595.19,3.268
649,595.52,3.261
650,595.85,3.253
651,596.19,3.246
652,596.53,3.239
653,596.87,3.232
654,597.20,3.224
655,597.53,3.217
656,597.87,3.209
657,598.21,3.202
658,598.54,3.194
659,598.88,3.186
660,599.21,3.179
661,599.55,3.171
662,599.89,3.163
663,600.23,3.155
664,600.56,3.147
665,600.89,3.139
666,601.23,3.131
667,601.57,3.123
668,601.91,3.114
669,602.24,3.106
670,602.57,3.098
671,602.91,3.089
672,603.24,3.081
673,603.59,3.072
674,603.93,3.063
675,604.26,3.054
676,604.59,3.046
677,604.92,3.037
678,605.26,3.028
679,605.60,3.019
680,605.94,3.010
681,606.27,3.000
682,606.60,2.991
683,606.94,2.982
684,607.28,2.972
685,607.61,2.963
686,607.95,2.953
687,608.29,2.944
688,608.62,2.934
689,608.96,2.924
690,609.29,2.914
691,609.63,2.904
692,609.97,2.894
693,610.30,2.884
694,610.64,2.874
695,610.98,2.863
696,611.31,2.853
697,611.64,2.842
698,611.97,2.832
699,612.31,2.821
700,612.65,2.810
701,612.98,2.799
702,613.32,2.788
703,613.66,2.777
704,614.00,2.766
705,614.33,2.754
706,614.67,2.743
707,615.01,2.731
708,615.34,2.719
709,615.67,2.707
710,616.01,2.695
711,616.34,2.683
712,616.68,2.671
713,617.02,2.658
714,617.35,2.646
715,617.69,2.633
716,618.03,2.620
717,618.36,2.607
718,618.70,2.594
719,619.04,2.581
720,619.37,2.567
721,619.70,2.553
722,620.05,2.540
723,620.38,2.525
724,620.72,2.511
725,621.05,2.497
726,621.39,2.482
727,621.72,2.467
728,622.06,2.452
729,622.39,2.437
730,622.73,2.421
731,623.07,2.405
732,623.40,2.389
733,623.73,2.372
734,624.08,2.356
735,624.41,2.339
736,624.75,2.321
737,625.08,2.304
738,625.41,2.286
739,625.76,2.268
740,626.10,2.250
741,626.43,2.231
742,626.76,2.212
743,627.10,2.193
744,627.44,2.174
745,627.77,2.154
746,628.11,2.135
747,628.44,2.114
748,628.77,2.094
749,629.11,2.074
750,629.46,2.053
751,629.79,2.032
752,630.12,2.011
753,630.46,1.990
754,630.79,1.968
755,631.13,1.947
756,631.47,1.926
757,631.81,1.904
758,632.14,1.883
759,632.47,1.862
760,632.81,1.841
761,633.15,1.820
762,633.49,1.799
763,633.82,1.779
764,634.15,1.758
765,634.49,1.738
766,634.82,1.719
767,635.17,1.700
768,635.50,1.681
769,635.83,1.663
770,636.16,1.645
771,636.50,1.628
772,636.84,1.611
773,637.17,1.595
774,637.51,1.580
775,637.85,1.565
776,638.18,1.551
777,638.52,1.538
778,638.85,1.525
779,639.19,1.513
780,639.53,1.502
781,639.86,1.492
782,640.20,1.482
783,640.54,1.472
784,640.87,1.463
785,641.21,1.455
786,641.54,1.446
787,641.88,1.439
788,642.21,1.431
789,642.55,1.424
790,642.88,1.417
791,643.22,1.411
792,643.56,1.405
793,643.90,1.399
794,644.22,1.393
795,644.56,1.387
796,644.90,1.382
797,645.24,1.377
798,645.57,1.371
799,645.91,1.366
800,646.24,1.361
801,646.58,1.357
802,646.91,1.352
803,647.25,1.347
804,647.58,1.343
805,647.92,1.338
806,648.26,1.334
807,648.59,1.329
808,648.93,1.325
809,649.26,1.321
810,649.60,1.317
811,649.94,1.313
812,650.27,1.309
813,650.61,1.305
814,650.94,1.301
815,651.28,1.298
816,651.62,1.294
817,651.95,1.290
818,652.29,1.287
819,652.62,1.283
820,652.96,1.280
821,653.29,1.276
822,653.63,1.273
823,653.97,1.269
824,654.31,1.266
825,654.64,1.263
826,654.98,1.260
827,655.31,1.256
828,655.65,1.253
829,655.99,1.250
830,656.32,1.247
831,656.65,1.244
832,656.99,1.241
833,657.33,1.238
834,657.67,1.235
835,658.00,1.232
836,658.33,1.229
837,658.67,1.226
838,659.01,1.223
839,659.35,1.220
840,659.68,1.217
841,660.01,1.215
842,660.35,1.212
843,660.69,1.209
844,661.02,1.206
845,661.36,1.204
846,661.70,1.201
847,662.04,1.198
848,662.37,1.195
849,662.71,1.193
850,663.04,1.190
851,663.37,1.187
852,663.71,1.185
853,664.05,1.182
854,664.38,1.180
855,664.72,1.177
856,665.05,1.174
857,665.39,1.172
858,665.73,1.169
859,666.06,1.167
860,666.40,1.164
861,666.73,1.162
862,667.07,1.159
863,667.41,1.157
864,667.74,1.154
865,668.08,1.152
866,668.41,1.149
867,668.75,1.147
868,669.09,1.144
869,669.42,1.142
870,669.76,1.139
871,670.09,1.137
872,670.43,1.135
873,670.77,1.132
874,671.10,1.130
875,671.44,1.127
876,671.78,1.125
877,672.11,1.123
878,672.45,1.120
879,672.78,1.118
880,673.12,1.115
881,673.45,1.113
882,673.79,1.111
883,674.13,1.108
884,674.46,1.106
885,674.80,1.104
886,675.13,1.101
887,675.47,1.099
888,675.81,1.097
889,676.15,1.094
890,676.48,1.092
891,676.81,1.090
892,677.15,1.088
893,677.48,1.085
894,677.82,1.083
895,678.16,1.081
896,678.49,1.078
897,678.84,1.076
898,679.17,1.074
899,679.50,1.072
900,679.83,1.069
901,680.17,1.067
902,680.52,1.065
903,680.85,1.063
904,681.18,1.060
905,681.52,1.058
906,681.86,1.056
907,682.20,1.054
908,682.53,1.052
909,682.85,1.050
910,683.19,1.047
911,683.54,1.045
912,683.88,1.043
913,684.21,1.041
914,684.54,1.039
915,684.87,1.036
916,685.21,1.034
917,685.55,1.032
918,685.89,1.030
919,686.22,1.028
920,686.55,1.025
921,686.89,1.023
922,687.23,1.021
923,687.57,1.019
924,687.90,1.016
925,688.24,1.014
926,688.57,1.012
927,688.91,1.010
928,689.25,1.007
929,689.58,1.005
930,689.92,1.003
931,690.26,1.001
932,690.59,0.999
933,690.92,0.996
934,691.26,0.994
935,691.60,0.992
936,691.94,0.990
937,692.27,0.987
938,692.60,0.985
939,692.94,0.983
940,693.27,0.981
941,693.61,0.979
942,693.95,0.976
943,694.28,0.974
944,694.62,0.972
945,694.96,0.970
946,695.30,0.967
947,695.63,0.965
948,695.96,0.963
949,696.30,0.960
950,696.64,0.958
951,696.98,0.956
952,697.31,0.953
953,697.65,0.951
954,697.98,0.949
955,698.31,0.947
956,698.64,0.944
957,698.99,0.942
958,699.32,0.940
959,699.66,0.938
960,700.00,0.935
961,700.33,0.933
962,700.67,0.931
963,701.00,0.929
964,701.33,0.926
965,701.67,0.924
966,702.00,0.922
967,702.33,0.919
968,702.66,0.917
969,703.00,0.915
970,703.33,0.913
971,703.66,0.910
972,703.99,0.908
973,704.33,0.906
974,704.67,0.903
975,705.00,0.901
976,705.32,0.899
977,705.66,0.896
978,706.00,0.894
979,706.33,0.892
980,706.66,0.889
981,706.99,0.887
982,707.33,0.885
983,707.67,0.882
984,708.00,0.880
985,708.33,0.878
986,708.66,0.875
987,709.00,0.873
988,709.33,0.870
989,709.66,0.868
990,710.00,0.866
991,710.33,0.863
992,710.66,0.861
993,710.99,0.858
994,711.33,0.856
995,711.66,0.853
996,711.99,0.851
997,712.33,0.849
998,712.67,0.846
999,712.99,0.844
1000,713.33,0.842
1001,713.66,0.839
1002,713.99,0.837
1003,714.33,0.835
1004,714.67,0.832
1005,714.99,0.830
1006,715.33,0.827
1007,715.66,0.825
1008,716.00,0.823
1009,716.33,0.820
1010,716.66,0.818
1011,716.99,0.815
1012,717.33,0.813
1013,717.66,0.810
1014,718.00,0.808
1015,718.33,0.805
1016,718.66,0.803
1017,719.00,0.800
1018,719.33,0.798
1019,719.66,0.795
1020,720.00,0.793
1021,720.32,0.790
1022,720.66,0.788
1023,721.00,0.785
1024,721.33,0.783
1025,721.66,0.780
1026,721.99,0.778
1027,722.33,0.775
1028,722.66,0.772
1029,722.99,0.770
1030,723.33,0.767
1031,723.66,0.765
1032,723.99,0.762
1033,724.33,0.759
1034,724.66,0.757
1035,724.99,0.754
1036,725.33,0.751
1037,725.66,0.749
1038,726.00,0.746
1039,726.34,0.743
1040,726.66,0.741
1041,727.00,0.738
1042,727.33,0.735
1043,727.66,0.732
1044,727.99,0.730
1045,728.33,0.727
1046,728.67,0.724
1047,728.99,0.721
1048,729.33,0.718
1049,729.67,0.716
1050,730.00,0.713
1051,730.33,0.710
1052,730.66,0.707
1053,731.00,0.704
1054,731.33,0.701
1055,731.66,0.699
1056,731.99,0.696
1057,732.33,0.693
1058,732.66,0.690
1059,733.00,0.687
1060,733.33,0.684
1061,733.67,0.681
1062,734.00,0.678
1063,734.33,0.675
1064,734.66,0.672
1065,735.00,0.669
1066,735.33,0.666
1067,735.66,0.663
1068,735.99,0.660
1069,736.33,0.657
1070,736.67,0.654
1071,736.99,0.650
1072,737.33,0.647
1073,737.66,0.644
1074,738.00,0.641
1075,738.33,0.638
1076,738.66,0.635
1077,739.00,0.632
1078,739.33,0.628
1079,739.66,0.625
1080,740.00,0.622
1081,740.33,0.619
1082,740.67,0.616
1083,741.00,0.612
1084,741.33,0.609
1085,741.66,0.606
1086,742.00,0.603
1087,742.34,0.599
1088,742.67,0.596
1089,742.99,0.593
1090,743.33,0.590
1091,743.67,0.586
1092,744.00,0.583
1093,744.33,0.580
1094,744.66,0.576
1095,745.00,0.573
1096,745.33,0.570
1097,745.66,0.566
1098,746.00,0.563
1099,746.33,0.559
1100,746.67,0.556
1101,747.00,0.553
1102,747.32,0.549
1103,747.66,0.546
1104,748.00,0.543
1105,748.33,0.539
1106,748.66,0.536
1107,749.00,0.532
1108,749.33,0.529
1109,749.66,0.526
1110,750.00,0.522
1111,750.33,0.519
1112,750.66,0.515
1113,750.99,0.512
1114,751.33,0.509
1115,751.67,0.505
1116,752.00,0.502
1117,752.32,0.498
1118,752.66,0.495
1119,753.00,0.491
1120,753.33,0.488
1121,753.66,0.485
1122,754.00,0.481
1123,754.33,0.478
1124,754.67,0.474
1125,754.99,0.471
1126,755.33,0.467
1127,755.67,0.464
1128,756.00,0.460
1129,756.33,0.457
1130,756.66,0.453
1131,756.99,0.450
1132,757.33,0.446
1133,757.67,0.443
1134,758.00,0.439
1135,758.33,0.436
1136,758.66,0.432
1137,759.00,0.429
1138,759.33,0.425
1139,759.67,0.422
1140,759.99,0.418
1141,760.33,0.415
1142,760.66,0.411
1143,761.00,0.408
1144,761.33,0.404
1145,761.66,0.401
1146,762.00,0.397
1147,762.33,0.393
1148,762.66,0.390
1149,763.00,0.386
1150,763.34,0.383
1151,763.67,0.379
1152,764.00,0.375
1153,764.33,0.372
1154,764.66,0.368
1155,765.00,0.364
1156,765.33,0.360
1157,765.67,0.357
1158,765.99,0.353
1159,766.34,0.349
1160,766.67,0.345
1161,767.00,0.341
1162,767.33,0.338
1163,767.67,0.334
1164,768.00,0.330
1165,768.33,0.326
1166,768.67,0.322
1167,769.00,0.318
1168,769.33,0.314
1169,769.67,0.310
1170,769.99,0.306
1171,770.33,0.302
1172,770.67,0.298
1173,771.00,0.293
1174,771.33,0.289
1175,771.66,0.285
1176,772.01,0.281
1177,772.33,0.276
1178,772.66,0.272
1179,773.00,0.268
1180,773.33,0.263
1181,773.67,0.259
1182,774.00,0.254
1183,774.33,0.249
1184,774.67,0.244
1185,775.00,0.239
1186,775.33,0.235
1187,775.66,0.230
1188,776.01,0.226
1189,776.34,0.221
1190,776.67,0.216
1191,777.00,0.212
1192,777.34,0.207
1193,777.67,0.201
1194,778.01,0.196
1195,778.64,0.175
1196,779.59,0.113
1197,779.21,0.059
1198,778.81,0.029
1199,779.53,0.020
1200,780.22,0.018
1201,780.22,0.018
1202,780.42,0.018
1203,780.98,0.018
1204,781.38,0.018
1205,781.57,0.018
1206,781.88,0.018
1207,782.30,0.019
1208,782.67,0.019
1209,782.95,0.019
1210,783.26,0.018
1211,783.63,0.017
1212,783.99,0.017
1213,784.31,0.016
1214,784.63,0.016
1215,784.97,0.016
1216,785.32,0.016
1217,785.66,0.015
1218,785.98,0.015
1219,786.31,0.015
1220,786.65,0.015
1221,786.99,0.015
1222,787.32,0.015
1223,787.65,0.015
1224,787.99,0.014
1225,788.32,0.014
1226,788.66,0.014
1227,788.99,0.014
1228,789.33,0.014
1229,789.66,0.014
1230,789.99,0.014
1231,790.34,0.014
1232,790.66,0.014
1233,791.00,0.014
1234,791.33,0.013
1235,791.66,0.013
1236,791.99,0.013
1237,792.33,0.013
1238,792.67,0.013
1239,792.99,0.013
1240,793.33,0.013
1241,793.67,0.013
1242,794.00,0.013
1243,794.33,0.013
1244,794.67,0.013
1245,795.00,0.013
1246,795.33,0.013
1247,795.67,0.013
1248,796.00,0.013
1249,796.34,0.013
1250,796.67,0.013
1251,796.99,0.013
1252,797.33,0.013
1253,797.68,0.013
1254,798.01,0.013
1255,798.33,0.013
1256,798.66,0.012
1257,799.00,0.012
1258,799.34,0.012
1259,799.67,0.012
1260,799.99,0.012
1261,800.34,0.012
1262,800.67,0.012
1263,801.01,0.012
1264,801.33,0.012
1265,801.66,0.012
1266,802.01,0.012
1267,802.34,0.012
1268,802.67,0.012
1269,803.00,0.012
1270,803.33,0.012
1271,803.67,0.012
1272,804.00,0.012
1273,804.34,0.012
1274,804.67,0.012
1275,805.00,0.012
1276,805.34,0.012
1277,805.67,0.012
1278,806.00,0.012
1279,806.33,0.012
1280,806.67,0.012
1281,807.00,0.012
1282,807.33,0.012
1283,807.67,0.012
1284,808.01,0.012
1285,808.34,0.012
1286,808.67,0.012
1287,809.00,0.012
1288,809.33,0.012
1289,809.67,0.012
1290,810.00,0.012
1291,810.34,0.012
1292,810.67,0.012
1293,811.00,0.012
1294,811.34,0.012
1295,811.67,0.012
1296,812.01,0.012
1297,812.34,0.012
1298,812.67,0.012
1299,813.00,0.012
1300,813.33,0.012
1301,813.67,0.012
1302,814.00,0.012
1303,814.34,0.012
1304,814.67,0.012
1305,815.00,0.011
1306,815.34,0.011
1307,815.68,0.011
1308,816.00,0.011
1309,816.34,0.011
1310,816.67,0.011
1311,817.01,0.011
1312,817.34,0.011
1313,817.67,0.011
1314,818.00,0.011
1315,818.34,0.011
1316,818.68,0.011
1317,819.00,0.011
1318,819.34,0.011
1319,819.68,0.011
1320,820.00,0.011
1321,820.33,0.011
1322,820.67,0.011
1323,821.01,0.011
1324,821.34,0.011
1325,821.68,0.011
1326,822.00,0.011
1327,822.33,0.011
1328,822.67,0.011
1329,823.01,0.011
1330,823.34,0.011
1331,823.67,0.011
1332,824.01,0.011
1333,824.34,0.011
1334,824.67,0.011
1335,825.01,0.011
1336,825.34,0.011
1337,825.67,0.011
1338,826.00,0.011
1339,826.33,0.011
1340,826.68,0.011
1341,827.01,0.011
1342,827.33,0.011
1343,827.66,0.011
1344,828.00,0.011
1345,828.34,0.011
1346,828.68,0.011
1347,829.01,0.011
1348,829.34,0.011
1349,829.67,0.011
1350,830.00,0.011
1351,830.34,0.011
1352,830.67,0.011
1353,831.01,0.011
1354,831.34,0.011
1355,831.67,0.011
1356,832.01,0.011
1357,832.34,0.011
1358,832.68,0.011
1359,833.01,0.011
1360,833.34,0.011
1361,833.67,0.010
1362,834.01,0.010
1363,834.35,0.010
1364,834.67,0.010
1365,835.00,0.010
1366,835.34,0.010
1367,835.68,0.010
1368,836.00,0.010
1369,836.33,0.010
1370,836.67,0.010
1371,837.01,0.010
1372,837.34,0.010
1373,837.67,0.010
1374,838.00,0.010
1375,838.34,0.010
1376,838.67,0.010
1377,839.01,0.010
1378,839.34,0.010
1379,839.68,0.010
1380,840.01,0.010
1381,840.34,0.010
1382,840.67,0.010
1383,841.00,0.010
1384,841.35,0.010
1385,841.68,0.010
1386,842.01,0.010
1387,842.34,0.010
1388,842.68,0.010
1389,843.01,0.010
1390,843.34,0.010
1391,843.67,0.010
1392,844.01,0.010
1393,844.34,0.010
1394,844.67,0.010
1395,845.01,0.010
1396,845.34,0.010
1397,845.67,0.010
1398,846.01,0.010
1399,846.35,0.010
1400,846.68,0.010
1401,847.01,0.010
1402,847.35,0.010
1403,847.68,0.010
1404,848.00,0.010
1405,848.34,0.010
1406,848.67,0.010
1407,849.01,0.010
1408,849.34,0.010
1409,849.67,0.010
1410,850.01,0.010
1411,850.34,0.010
1412,850.68,0.010
1413,851.01,0.010
1414,851.34,0.010
1415,851.68,0.010
1416,852.01,0.010
1417,852.34,0.010
1418,852.67,0.010
1419,853.02,0.009
1420,853.35,0.009
1421,853.67,0.009
1422,854.00,0.009
1423,854.34,0.009
1424,854.68,0.009
1425,855.01,0.009
1426,855.34,0.009
1427,855.68,0.009
1428,856.01,0.009
1429,856.34,0.009
1430,856.67,0.009
1431,857.01,0.009
1432,857.34,0.009
1433,857.68,0.009
1434,858.01,0.009
1435,858.35,0.009
1436,858.68,0.009
1437,859.01,0.009
1438,859.34,0.009
1439,859.67,0.009
1440,860.01,0.009
1441,860.34,0.009
1442,860.68,0.009
1443,861.01,0.009
1444,861.35,0.009
1445,861.68,0.009
1446,862.01,0.009
1447,862.34,0.009
1448,862.68,0.009
1449,863.01,0.009
1450,863.34,0.009
1451,863.68,0.009
1452,864.01,0.009
1453,864.34,0.009
1454,864.68,0.009
1455,865.02,0.009
1456,865.35,0.009
1457,865.68,0.009
1458,866.01,0.009
1459,866.35,0.009
1460,866.67,0.009
1461,867.01,0.009
1462,867.35,0.009
1463,867.68,0.009
1464,868.01,0.009
1465,868.35,0.009
1466,868.68,0.009
1467,869.01,0.009
1468,869.35,0.009
1469,869.69,0.009
1470,870.01,0.009
1471,870.34,0.009
1472,870.68,0.009
1473,871.02,0.009
1474,871.34,0.009
1475,871.68,0.009
1476,872.02,0.009
1477,872.35,0.008
1478,872.68,0.008
1479,873.01,0.008
1480,873.34,0.008
1481,873.68,0.008
1482,874.02,0.008
1483,874.34,0.008
1484,874.68,0.008
1485,875.02,0.008
1486,875.35,0.008
1487,875.69,0.008
1488,876.02,0.008
1489,876.35,0.008
1490,876.68,0.008
1491,877.01,0.008
1492,877.35,0.008
1493,877.68,0.008
1494,878.01,0.008
1495,878.35,0.008
1496,878.68,0.008
1497,879.01,0.008
1498,879.34,0.008
1499,879.68,0.008
1500,880.01,0.008
1501,880.35,0.008
1502,880.68,0.008
1503,881.01,0.008
1504,881.35,0.008
1505,881.69,0.008
1506,882.02,0.008
1507,882.34,0.008
1508,882.68,0.008
1509,883.02,0.008
1510,883.35,0.008
1511,883.69,0.008
1512,884.01,0.008
1513,884.35,0.008
1514,884.68,0.008
1515,885.02,0.008
1516,885.35,0.008
1517,885.68,0.008
1518,886.02,0.008
1519,886.35,0.008
1520,886.69,0.008
1521,887.02,0.008
1522,887.35,0.008
1523,887.68,0.008
1524,888.02,0.008
1525,888.35,0.008
1526,888.69,0.008
1527,889.02,0.008
1528,889.35,0.008
1529,889.68,0.008
1530,890.01,0.008
1531,890.35,0.008
1532,890.68,0.008
1533,891.02,0.008
1534,891.35,0.008
1535,891.69,0.008
1536,892.02,0.008
1537,892.35,0.008
1538,892.68,0.008
1539,893.02,0.008
1540,893.36,0.007
1541,893.69,0.007
1542,894.02,0.007
1543,894.34,0.007
1544,894.68,0.007
1545,895.02,0.007
1546,895.35,0.007
1547,895.68,0.007
1548,896.01,0.007
1549,896.35,0.007
1550,896.68,0.007
1551,897.02,0.007
1552,897.35,0.007
1553,897.69,0.007
1554,898.02,0.007
1555,898.35,0.007
1556,898.69,0.007
1557,899.01,0.007
1558,899.35,0.007
1559,899.69,0.007
1560,900.02,0.007
1561,900.35,0.007
1562,900.68,0.007
1563,901.02,0.007
1564,901.35,0.007
1565,901.69,0.007
1566,902.02,0.007
1567,902.35,0.007
1568,902.68,0.007
1569,903.02,0.007
1570,903.35,0.007
1571,903.69,0.007
1572,904.02,0.007
1573,904.35,0.007
1574,904.69,0.007
1575,905.02,0.007
1576,905.35,0.007
1577,905.69,0.007
1578,906.02,0.007
1579,906.35,0.007
1580,906.68,0.007
1581,907.02,0.007
1582,907.35,0.007
1583,907.69,0.007
1584,908.02,0.007
1585,908.35,0.007
1586,908.68,0.007
1587,909.02,0.007
1588,909.35,0.007
1589,909.68,0.007
1590,910.02,0.007
1591,910.35,0.007
1592,910.69,0.007
1593,911.02,0.007
1594,911.35,0.007
1595,911.69,0.007
1596,912.02,0.006
1597,912.36,0.006
1598,912.69,0.006
1599,913.02,0.006
1600,913.35,0.006
1601,913.69,0.006
1602,914.02,0.006
1603,914.35,0.006
1604,914.69,0.006
1605,915.02,0.006
1606,915.36,0.006
1607,915.69,0.006
1608,916.02,0.006
1609,916.35,0.006
1610,916.69,0.006
1611,917.02,0.006
1612,917.36,0.006
1613,917.69,0.006
1614,918.02,0.006
1615,918.35,0.006
1616,918.69,0.006
1617,919.02,0.006
1618,919.35,0.006
1619,919.69,0.006
1620,920.02,0.006
1621,920.36,0.006
1622,920.69,0.006
1623,921.02,0.006
1624,921.35,0.006
1625,921.69,0.006
1626,922.02,0.006
1627,922.36,0.006
1628,922.69,0.006
1629,923.02,0.006
1630,923.35,0.006
1631,923.69,0.006
1632,924.02,0.006
1633,924.36,0.006
1634,924.69,0.006
1635,925.02,0.006
1636,925.35,0.006
1637,925.69,0.006
1638,926.02,0.006
1639,926.36,0.006
1640,926.69,0.006
1641,927.03,0.006
1642,927.35,0.006
1643,927.68,0.006
1644,928.02,0.006
1645,928.36,0.006
1646,928.69,0.006
1647,929.02,0.006
1648,929.36,0.006
1649,929.69,0.006
1650,930.02,0.006
1651,930.35,0.006
1652,930.69,0.006
1653,931.02,0.006
1654,931.35,0.006
1655,931.69,0.006
1656,932.02,0.006
1657,932.36,0.006
1658,932.69,0.006
1659,933.02,0.006
1660,933.36,0.006
1661,933.69,0.006
1662,934.03,0.006
1663,934.35,0.006
1664,934.69,0.006
1665,935.03,0.006
1666,935.36,0.006
1667,935.69,0.006
1668,936.03,0.006
1669,936.36,0.006
1670,936.69,0.006
1671,937.02,0.006
1672,937.35,0.006
1673,937.69,0.005
1674,938.02,0.005
1675,938.35,0.005
1676,938.69,0.005
1677,939.03,0.005
1678,939.36,0.005
1679,939.69,0.005
1680,940.02,0.005
1681,940.36,0.005
1682,940.69,0.005
1683,941.03,0.005
1684,941.36,0.005
1685,941.69,0.005
1686,942.02,0.005
1687,942.36,0.005
1688,942.70,0.005
1689,943.03,0.005
1690,943.35,0.005
1691,943.69,0.005
1692,944.03,0.005
1693,944.35,0.005
1694,944.69,0.005
1695,945.02,0.005
1696,945.35,0.005
1697,945.69,0.005
1698,946.02,0.005
1699,946.36,0.005
1700,946.69,0.005
1701,947.02,0.005
1702,947.35,0.005
1703,947.70,0.005
1704,948.03,0.005
1705,948.36,0.005
1706,948.69,0.005
1707,949.02,0.005
1708,949.35,0.005
1709,949.70,0.005
1710,950.03,0.005
1711,950.35,0.005
1712,950.68,0.005
1713,951.02,0.005
1714,951.36,0.005
1715,951.69,0.005
1716,952.02,0.005
1717,952.36,0.005
1718,952.69,0.005
1719,953.02,0.005
1720,953.36,0.005
1721,953.69,0.005
1722,954.03,0.005
1723,954.36,0.005
1724,954.69,0.005
1725,955.02,0.005
1726,955.36,0.005
1727,955.69,0.005
1728,956.03,0.005
1729,956.36,0.005
1730,956.69,0.005
1731,957.02,0.005
1732,957.36,0.005
1733,957.68,0.005
1734,958.03,0.005
1735,958.35,0.005
1736,958.69,0.005
1737,959.03,0.005
1738,959.36,0.005
1739,959.69,0.005
1740,960.02,0.005
1741,960.36,0.005
1742,960.70,0.005
1743,961.02,0.005
1744,961.36,0.005
1745,961.69,0.005
1746,962.03,0.005
1747,962.36,0.005
1748,962.69,0.005
1749,963.02,0.005
1750,963.36,0.005
1751,963.69,0.005
1752,964.02,0.005
1753,964.36,0.005
1754,964.69,0.004
1755,965.02,0.004
1756,965.35,0.004
1757,965.69,0.004
1758,966.02,0.004
1759,966.36,0.004
1760,966.69,0.004
1761,967.02,0.004
1762,967.36,0.004
1763,967.70,0.004
1764,968.02,0.004
1765,968.35,0.004
1766,968.69,0.004
1767,969.03,0.004
1768,969.36,0.004
1769,969.70,0.004
1770,970.03,0.004
1771,970.36,0.004
1772,970.69,0.004
1773,971.02,0.004
1774,971.36,0.004
1775,971.69,0.004
1776,972.03,0.004
1777,972.36,0.004
1778,972.69,0.004
1779,973.03,0.004
1780,973.36,0.004
1781,973.69,0.004
1782,974.03,0.004
1783,974.36,0.004
1784,974.69,0.004
1785,975.03,0.004
1786,975.36,0.004
1787,975.69,0.004
1788,976.02,0.004
1789,976.36,0.004
1790,976.69,0.004
1791,977.03,0.004
1792,977.36,0.004
1793,977.69,0.004
1794,978.02,0.004
1795,978.36,0.004
1796,978.70,0.004
1797,979.02,0.004
1798,979.36,0.004
1799,979.69,0.004
1800,980.03,0.004
1801,980.36,0.004
1802,980.70,0.004
1803,981.03,0.004
1804,981.36,0.004
1805,981.70,0.004
1806,982.02,0.004
1807,982.36,0.004
1808,982.69,0.004
1809,983.03,0.004
1810,983.36,0.004
1811,983.69,0.004
1812,984.02,0.004
1813,984.36,0.004
1814,984.69,0.004
1815,985.03,0.004
1816,985.36,0.003
1817,985.69,0.003
1818,986.03,0.003
1819,986.36,0.003
1820,986.69,0.003
1821,987.03,0.003
1822,987.36,0.003
1823,987.69,0.003
1824,988.03,0.003
1825,988.36,0.003
1826,988.69,0.003
1827,989.03,0.003
1828,989.36,0.003
1829,989.69,0.003
1830,990.02,0.003
1831,990.35,0.003
1832,990.69,0.003
1833,991.02,0.003
1834,991.36,0.003
1835,991.69,0.003
1836,992.02,0.003
1837,992.36,0.003
1838,992.69,0.003
1839,993.03,0.003
1840,993.36,0.003
1841,993.69,0.003
1842,994.02,0.003
1843,994.35,0.003
1844,994.70,0.003
1845,995.03,0.003
1846,995.36,0.003
1847,995.69,0.003
1848,996.02,0.003
1849,996.37,0.003
1850,996.69,0.003
1851,997.02,0.003
1852,997.36,0.003
1853,997.69,0.003
1854,998.02,0.003
1855,998.36,0.003
1856,998.69,0.003
1857,999.02,0.003
1858,999.36,0.003
1859,999.70,0.003
1860,1000.02,0.003
1861,1000.36,0.003
1862,1000.69,0.003
1863,1001.03,0.003
1864,1001.36,0.003
1865,1001.69,0.003
1866,1002.03,0.003
1867,1002.36,0.003
1868,1002.69,0.003
1869,1003.02,0.003
1870,1003.36,0.003
1871,1003.69,0.003
1872,1004.02,0.003
1873,1004.36,0.003
1874,1004.69,0.003
1875,1005.03,0.003
1876,1005.36,0.003
1877,1005.69,0.003
1878,1006.03,0.003
1879,1006.36,0.003
1880,1006.69,0.003
1881,1007.02,0.003
1882,1007.36,0.003
1883,1007.69,0.003
1884,1008.02,0.003
1885,1008.36,0.003
1886,1008.69,0.003
1887,1009.03,0.003
1888,1009.36,0.003
1889,1009.70,0.003
1890,1010.03,0.003
1891,1010.36,0.003
1892,1010.69,0.003
1893,1011.02,0.003
1894,1011.36,0.003
1895,1011.70,0.003
1896,1012.03,0.003
1897,1012.36,0.003
1898,1012.69,0.003
1899,1013.02,0.003
1900,1013.36,0.003
1901,1013.69,0.003
1902,1014.02,0.003
1903,1014.36,0.003
1904,1014.70,0.003
1905,1015.03,0.003
1906,1015.36,0.003
1907,1015.69,0.003
1908,1016.02,0.003
1909,1016.36,0.003
1910,1016.69,0.003
1911,1017.03,0.003
1912,1017.36,0.002
1913,1017.69,0.002
1914,1018.02,0.002
1915,1018.36,0.002
1916,1018.69,0.002
1917,1019.03,0.002
1918,1019.36,0.002
1919,1019.69,0.002
1920,1020.02,0.002
1921,1020.35,0.002
1922,1020.70,0.002
1923,1021.03,0.002
1924,1021.36,0.002
1925,1021.69,0.002
1926,1022.03,0.002
1927,1022.36,0.002
1928,1022.70,0.002
1929,1023.02,0.002
1930,1023.36,0.002
1931,1023.70,0.002
1932,1024.02,0.002
1933,1024.35,0.002
1934,1024.68,0.002
1935,1025.02,0.002
1936,1025.36,0.002
1937,1025.69,0.002
1938,1026.03,0.002
1939,1026.36,0.002
1940,1026.70,0.002
1941,1027.03,0.002
1942,1027.36,0.002
1943,1027.70,0.002
1944,1028.02,0.002
1945,1028.35,0.002
1946,1028.70,0.002
1947,1029.02,0.002
1948,1029.36,0.002
1949,1029.69,0.002
1950,1030.02,0.002
1951,1030.36,0.002
1952,1030.69,0.002
1953,1031.02,0.002
1954,1031.36,0.002
1955,1031.69,0.002
1956,1032.02,0.002
1957,1032.36,0.002
1958,1032.69,0.002
1959,1033.02,0.002
1960,1033.36,0.002
1961,1033.69,0.002
1962,1034.03,0.002
1963,1034.36,0.002
1964,1034.69,0.002
1965,1035.02,0.002
1966,1035.35,0.002
1967,1035.70,0.002
1968,1036.03,0.002
1969,1036.35,0.002
1970,1036.68,0.002
1971,1037.03,0.002
1972,1037.36,0.002
1973,1037.69,0.002
1974,1038.03,0.002
1975,1038.36,0.002
1976,1038.70,0.002
1977,1039.03,0.002
1978,1039.36,0.002
1979,1039.69,0.002
1980,1040.02,0.002
1981,1040.36,0.002
1982,1040.69,0.002
1983,1041.02,0.002
1984,1041.35,0.002
1985,1041.69,0.002
1986,1042.02,0.002
1987,1042.36,0.002
1988,1042.69,0.002
1989,1043.03,0.002
1990,1043.36,0.002
1991,1043.69,0.002
1992,1044.03,0.002
1993,1044.36,0.002
1994,1044.69,0.002
1995,1045.03,0.002
1996,1045.36,0.002
1997,1045.69,0.002
1998,1046.02,0.002
1999,1046.36,0.002
2000,1046.68,0.002
2001,1047.02,0.002
2002,1047.36,0.002
2003,1047.69,0.002
2004,1048.02,0.002
2005,1048.36,0.002
2006,1048.69,0.002
2007,1049.02,0.001
2008,1049.35,0.001
2009,1049.69,0.001
2010,1050.03,0.001
2011,1050.35,0.001
2012,1050.68,0.001
2013,1051.02,0.001
2014,1051.36,0.001
2015,1051.69,0.001
2016,1052.03,0.001
2017,1052.36,0.001
2018,1052.70,0.001
2019,1053.02,0.001
2020,1053.35,0.001
2021,1053.69,0.001
2022,1054.02,0.001
2023,1054.36,0.001
2024,1054.69,0.001
2025,1055.03,0.001
2026,1055.36,0.001
2027,1055.69,0.001
2028,1056.02,0.001
2029,1056.36,0.001
2030,1056.69,0.001
2031,1057.03,0.001
2032,1057.36,0.001
2033,1057.70,0.001
2034,1058.02,0.001
2035,1058.35,0.001
2036,1058.69,0.001
2037,1059.02,0.001
2038,1059.36,0.001
2039,1059.69,0.001
2040,1060.02,0.001
2041,1060.36,0.001
2042,1060.69,0.001
2043,1061.02,0.001
2044,1061.36,0.001
2045,1061.69,0.001
2046,1062.02,0.001
2047,1062.35,0.001
2048,1062.68,0.001
2049,1063.02,0.001
2050,1063.36,0.001
2051,1063.69,0.001
2052,1064.02,0.001
2053,1064.36,0.001
2054,1064.69,0.001
2055,1065.02,0.001
2056,1065.36,0.001
2057,1065.69,0.001
2058,1066.02,0.001
2059,1066.36,0.001
2060,1066.69,0.001
2061,1067.02,0.001
2062,1067.36,0.001
2063,1067.69,0.001
2064,1068.02,0.001
2065,1068.36,0.001
2066,1068.69,0.001
2067,1069.03,0.001
2068,1069.35,0.001
2069,1069.68,0.001
2070,1070.03,0.001
2071,1070.36,0.001
2072,1070.69,0.001
2073,1071.02,0.001
2074,1071.35,0.001
2075,1071.69,0.001
2076,1072.02,0.001
2077,1072.35,0.001
2078,1072.69,0.001
2079,1073.02,0.001
2080,1073.35,0.001
2081,1073.69,0.001
2082,1074.02,0.001
2083,1074.35,0.001
2084,1074.69,0.000
2085,1075.03,0.000
2086,1075.35,0.000
2087,1075.69,0.000
2088,1076.02,0.000
2089,1076.36,0.000
2090,1076.69,0.000
2091,1077.03,0.000
2092,1077.36,0.000
2093,1077.69,0.000
2094,1078.02,0.000
2095,1078.36,0.000
2096,1078.69,0.000
2097,1079.02,0.000
2098,1079.36,0.000
2099,1079.69,0.000
2100,1080.02,0.000
2101,1080.35,0.000
2102,1080.69,0.000
2103,1081.02,0.000
2104,1081.35,0.000
2105,1081.68,0.000
2106,1082.02,0.000
2107,1082.36,0.000
2108,1082.69,0.000
2109,1083.02,0.000
2110,1083.36,0.000
2111,1083.69,0.000
2112,1084.03,0.000
2113,1084.35,0.000
2114,1084.69,0.000
2115,1085.02,0.000
2116,1085.35,0.000
2117,1085.69,0.000
2118,1086.02,0.000
2119,1086.35,0.000
2120,1086.68,0.000
2121,1087.02,0.000
2122,1087.35,0.000
2123,1087.69,0.000
2124,1088.03,0.000
2125,1088.36,0.000
2126,1088.68,-0.001
2127,1089.02,-0.001
2128,1089.36,-0.001
2129,1089.69,-0.001
2130,1090.02,-0.001
2131,1090.35,-0.001
2132,1090.68,-0.001
2133,1091.02,-0.001
2134,1091.35,-0.001
2135,1091.69,-0.001
2136,1092.02,-0.001
2137,1092.36,-0.001
2138,1092.69,-0.001
2139,1093.01,-0.001
2140,1093.35,-0.001
2141,1093.69,-0.001
2142,1094.01,-0.001
2143,1094.35,-0.001
2144,1094.69,-0.001
2145,1095.01,-0.001
2146,1095.36,-0.001
2147,1095.68,-0.001
2148,1096.02,-0.001
2149,1096.35,-0.001
2150,1096.68,-0.001
2151,1097.02,-0.001
2152,1097.35,-0.001
2153,1097.69,-0.001
2154,1098.03,-0.001
2155,1098.35,-0.001
2156,1098.68,-0.001
2157,1099.02,-0.001
2158,1099.35,-0.001
2159,1099.68,-0.001
2160,1100.02,-0.001
2161,1100.36,-0.001
2162,1100.69,-0.001
2163,1101.02,-0.001
2164,1101.35,-0.001
2165,1101.69,-0.001
2166,1102.02,-0.001
2167,1102.35,-0.001
2168,1102.68,-0.001
2169,1103.02,-0.001
2170,1103.35,-0.001
2171,1103.69,-0.001
2172,1104.02,-0.001
2173,1104.36,-0.001
2174,1104.69,-0.001
2175,1105.01,-0.002
2176,1105.35,-0.002
2177,1105.69,-0.002
2178,1106.02,-0.002
2179,1106.36,-0.002
2180,1106.69,-0.002
2181,1107.02,-0.002
2182,1107.35,-0.002
2183,1107.69,-0.002
2184,1108.02,-0.002
2185,1108.35,-0.002
2186,1108.68,-0.002
2187,1109.02,-0.002
2188,1109.35,-0.002
2189,1109.68,-0.002
2190,1110.02,-0.002
2191,1110.36,-0.002
2192,1110.68,-0.002
2193,1111.02,-0.002
2194,1111.36,-0.002
2195,1111.68,-0.002
2196,1112.01,-0.002
2197,1112.35,-0.002
2198,1112.69,-0.002
2199,1113.02,-0.002
2200,1113.36,-0.002
2201,1113.69,-0.002
2202,1114.02,-0.002
2203,1114.35,-0.002
2204,1114.68,-0.002
2205,1115.02,-0.002
2206,1115.35,-0.002
2207,1115.69,-0.002
2208,1116.02,-0.002
2209,1116.36,-0.002
2210,1116.69,-0.002
2211,1117.01,-0.002
2212,1117.35,-0.002
2213,1117.69,-0.002
2214,1118.02,-0.002
2215,1118.35,-0.002
2216,1118.68,-0.002
2217,1119.02,-0.002
2218,1119.36,-0.002
2219,1119.68,-0.002
2220,1120.01,-0.002
2221,1120.35,-0.002
2222,1120.68,-0.002
2223,1121.02,-0.002
2224,1121.36,-0.002
2225,1121.69,-0.002
2226,1122.02,-0.002
2227,1122.35,-0.002
2228,1122.68,-0.002
2229,1123.02,-0.002
2230,1123.35,-0.002
2231,1123.69,-0.002
2232,1124.02,-0.003
2233,1124.35,-0.003
2234,1124.68,-0.003
2235,1125.02,-0.003
2236,1125.35,-0.003
2237,1125.68,-0.003
2238,1126.02,-0.003
2239,1126.35,-0.003
2240,1126.69,-0.003
2241,1127.02,-0.003
2242,1127.35,-0.003
2243,1127.68,-0.003
2244,1128.02,-0.003
2245,1128.35,-0.003
2246,1128.69,-0.003
2247,1129.02,-0.003
2248,1129.35,-0.003
2249,1129.69,-0.003
2250,1130.02,-0.003
2251,1130.34,-0.003
2252,1130.69,-0.003
2253,1131.02,-0.003
2254,1131.35,-0.003
2255,1131.68,-0.003
2256,1132.01,-0.003
2257,1132.35,-0.003
2258,1132.69,-0.003
2259,1133.02,-0.003
2260,1133.35,-0.003
2261,1133.68,-0.003
2262,1134.01,-0.003
2263,1134.35,-0.003
2264,1134.68,-0.003
2265,1135.01,-0.003
2266,1135.35,-0.003
2267,1135.69,-0.003
2268,1136.01,-0.003
2269,1136.35,-0.003
2270,1136.69,-0.003
2271,1137.01,-0.003
2272,1137.34,-0.003
2273,1137.68,-0.003
2274,1138.02,-0.003
2275,1138.35,-0.003
2276,1138.68,-0.003
2277,1139.02,-0.003
2278,1139.35,-0.003
2279,1139.68,-0.003
2280,1140.02,-0.003
2281,1140.35,-0.003
2282,1140.69,-0.003
2283,1141.02,-0.003
2284,1141.35,-0.003
2285,1141.69,-0.003
2286,1142.01,-0.003
2287,1142.35,-0.004
2288,1142.69,-0.004
2289,1143.02,-0.004
2290,1143.34,-0.004
2291,1143.69,-0.004
2292,1144.02,-0.004
2293,1144.34,-0.004
2294,1144.68,-0.004
2295,1145.02,-0.004
2296,1145.35,-0.004
2297,1145.68,-0.004
2298,1146.01,-0.004
2299,1146.35,-0.004
2300,1146.68,-0.004
2301,1147.01,-0.004
2302,1147.36,-0.004
2303,1147.68,-0.004
2304,1148.02,-0.004
2305,1148.35,-0.004
2306,1148.68,-0.004
2307,1149.01,-0.004
2308,1149.35,-0.004
2309,1149.68,-0.004
2310,1150.02,-0.004
2311,1150.35,-0.004
2312,1150.68,-0.004
2313,1151.02,-0.004
2314,1151.35,-0.004
2315,1151.69,-0.004
2316,1152.02,-0.004
2317,1152.34,-0.004
2318,1152.68,-0.004
2319,1153.02,-0.004
2320,1153.35,-0.004
2321,1153.68,-0.004
2322,1154.01,-0.004
2323,1154.35,-0.004
2324,1154.68,-0.004
2325,1155.01,-0.004
2326,1155.35,-0.005
2327,1155.68,-0.005
2328,1156.02,-0.005
2329,1156.35,-0.005
2330,1156.68,-0.005
2331,1157.01,-0.005
2332,1157.34,-0.005
2333,1157.69,-0.005
2334,1158.01,-0.005
2335,1158.34,-0.005
2336,1158.68,-0.005
2337,1159.01,-0.005
2338,1159.35,-0.005
2339,1159.68,-0.005
2340,1160.02,-0.005
2341,1160.36,-0.005
2342,1160.69,-0.005
2343,1161.01,-0.005
2344,1161.34,-0.005
2345,1161.68,-0.005
2346,1162.02,-0.005
2347,1162.35,-0.005
2348,1162.67,-0.005
2349,1163.01,-0.005
2350,1163.35,-0.005
2351,1163.68,-0.005
2352,1164.01,-0.005
2353,1164.34,-0.005
2354,1164.68,-0.005
2355,1165.01,-0.005
2356,1165.35,-0.005
2357,1165.69,-0.005
2358,1166.02,-0.005
2359,1166.34,-0.005
2360,1166.68,-0.005
2361,1167.01,-0.005
2362,1167.35,-0.005
2363,1167.68,-0.005
2364,1168.01,-0.005
2365,1168.35,-0.005
2366,1168.69,-0.005
2367,1169.01,-0.005
2368,1169.34,-0.006
2369,1169.67,-0.006
