Time (s),Sample Temperature (K),Weight (mg)
0,383.15,5.110
1,383.15,5.110
2,383.15,5.110
3,383.15,5.110
4,383.15,5.110
5,383.15,5.110
6,383.15,5.111
7,383.15,5.111
8,383.15,5.111
9,383.15,5.111
10,383.17,5.111
11,383.28,5.111
12,383.44,5.111
13,383.64,5.112
14,383.89,5.112
15,384.16,5.112
16,384.42,5.112
17,384.69,5.112
18,384.95,5.113
19,385.21,5.113
20,385.48,5.113
21,385.76,5.113
22,386.03,5.113
23,386.31,5.113
24,386.59,5.114
25,386.87,5.114
26,387.15,5.114
27,387.44,5.114
28,387.72,5.114
29,388.01,5.114
30,388.30,5.114
31,388.59,5.114
32,388.89,5.114
33,389.18,5.114
34,389.47,5.114
35,389.77,5.114
36,390.06,5.114
37,390.36,5.114
38,390.67,5.114
39,390.97,5.114
40,391.27,5.114
41,391.58,5.114
42,391.88,5.114
43,392.18,5.114
44,392.50,5.114
45,392.80,5.114
46,393.12,5.114
47,393.43,5.114
48,393.73,5.113
49,394.05,5.113
50,394.36,5.113
51,394.68,5.113
52,394.99,5.113
53,395.31,5.113
54,395.63,5.113
55,395.95,5.113
56,396.26,5.113
57,396.58,5.113
58,396.90,5.113
59,397.23,5.113
60,397.55,5.113
61,397.87,5.113
62,398.19,5.113
63,398.51,5.113
64,398.84,5.113
65,399.16,5.113
66,399.49,5.113
67,399.82,5.113
68,400.14,5.113
69,400.47,5.113
70,400.79,5.113
71,401.11,5.113
72,401.45,5.113
73,401.78,5.113
74,402.11,5.113
75,402.43,5.113
76,402.76,5.113
77,403.09,5.113
78,403.42,5.113
79,403.75,5.113
80,404.09,5.113
81,404.42,5.113
82,404.74,5.113
83,405.08,5.113
84,405.41,5.113
85,405.74,5.113
86,406.07,5.113
87,406.40,5.113
88,406.74,5.112
89,407.07,5.112
90,407.40,5.112
91,407.74,5.112
92,408.07,5.112
93,408.40,5.112
94,408.74,5.112
95,409.07,5.112
96,409.40,5.112
97,409.74,5.112
98,410.08,5.112
99,410.41,5.112
100,410.74,5.112
101,411.07,5.112
102,411.40,5.112
103,411.75,5.112
104,412.09,5.112
105,412.43,5.112
106,412.76,5.112
107,413.09,5.112
108,413.42,5.112
109,413.75,5.111
110,414.10,5.111
111,414.44,5.111
112,414.78,5.111
113,415.11,5.111
114,415.44,5.111
115,415.78,5.111
116,416.11,5.111
117,416.45,5.111
118,416.79,5.111
119,417.13,5.111
120,417.46,5.111
121,417.80,5.111
122,418.13,5.111
123,418.47,5.111
124,418.80,5.111
125,419.15,5.111
126,419.49,5.111
127,419.83,5.110
128,420.16,5.110
129,420.49,5.110
130,420.82,5.110
131,421.17,5.110
132,421.51,5.110
133,421.85,5.110
134,422.18,5.110
135,422.52,5.110
136,422.86,5.110
137,423.19,5.110
138,423.53,5.110
139,423.87,5.110
140,424.21,5.110
141,424.55,5.109
142,424.88,5.109
143,425.22,5.109
144,425.55,5.109
145,425.89,5.109
146,426.23,5.109
147,426.57,5.109
148,426.91,5.109
149,427.25,5.109
150,427.58,5.109
151,427.91,5.109
152,428.24,5.109
153,428.58,5.109
154,428.92,5.109
155,429.25,5.108
156,429.60,5.108
157,429.93,5.108
158,430.26,5.108
159,430.59,5.108
160,430.93,5.108
161,431.27,5.108
162,431.61,5.108
163,431.94,5.108
164,432.28,5.107
165,432.62,5.107
166,432.95,5.107
167,433.28,5.107
168,433.62,5.107
169,433.95,5.107
170,434.29,5.107
171,434.63,5.107
172,434.97,5.107
173,435.30,5.106
174,435.64,5.106
175,435.97,5.106
176,436.32,5.106
177,436.65,5.106
178,436.98,5.106
179,437.31,5.106
180,437.65,5.106
181,437.99,5.105
182,438.33,5.105
183,438.66,5.105
184,439.00,5.105
185,439.33,5.105
186,439.67,5.105
187,440.01,5.105
188,440.34,5.105
189,440.67,5.104
190,441.01,5.104
191,441.35,5.104
192,441.68,5.104
193,442.03,5.104
194,442.37,5.104
195,442.69,5.103
196,443.03,5.103
197,443.36,5.103
198,443.70,5.103
199,444.04,5.103
200,444.38,5.102
201,444.71,5.102
202,445.05,5.102
203,445.38,5.102
204,445.72,5.102
205,446.06,5.101
206,446.39,5.101
207,446.72,5.101
208,447.06,5.101
209,447.40,5.101
210,447.74,5.100
211,448.07,5.100
212,448.40,5.100
213,448.74,5.100
214,449.08,5.099
215,449.42,5.099
216,449.75,5.099
217,450.09,5.099
218,450.43,5.099
219,450.76,5.098
220,451.09,5.098
221,451.43,5.098
222,451.77,5.098
223,452.11,5.098
224,452.45,5.097
225,452.78,5.097
226,453.11,5.097
227,453.43,5.097
228,453.78,5.097
229,454.12,5.096
230,454.46,5.096
231,454.80,5.096
232,455.13,5.095
233,455.46,5.095
234,455.79,5.095
235,456.13,5.094
236,456.47,5.094
237,456.81,5.094
238,457.15,5.093
239,457.49,5.093
240,457.82,5.093
241,458.15,5.092
242,458.48,5.092
243,458.82,5.092
244,459.15,5.092
245,459.50,5.091
246,459.84,5.091
247,460.17,5.091
248,460.50,5.090
249,460.84,5.090
250,461.18,5.090
251,461.51,5.089
252,461.85,5.089
253,462.19,5.088
254,462.52,5.088
255,462.85,5.088
256,463.19,5.087
257,463.53,5.087
258,463.86,5.087
259,464.20,5.086
260,464.54,5.086
261,464.87,5.086
262,465.20,5.085
263,465.54,5.085
264,465.88,5.084
265,466.22,5.084
266,466.55,5.084
267,466.89,5.083
268,467.22,5.083
269,467.56,5.082
270,467.90,5.082
271,468.24,5.081
272,468.57,5.081
273,468.91,5.080
274,469.24,5.080
275,469.57,5.079
276,469.91,5.079
277,470.25,5.078
278,470.58,5.078
279,470.92,5.077
280,471.26,5.077
281,471.60,5.076
282,471.93,5.076
283,472.27,5.075
284,472.60,5.075
285,472.94,5.074
286,473.28,5.074
287,473.61,5.073
288,473.95,5.073
289,474.28,5.072
290,474.61,5.071
291,474.95,5.071
292,475.29,5.070
293,475.63,5.070
294,475.96,5.069
295,476.30,5.069
296,476.63,5.068
297,476.97,5.067
298,477.30,5.067
299,477.64,5.066
300,477.98,5.065
301,478.32,5.065
302,478.65,5.064
303,478.98,5.064
304,479.32,5.063
305,479.66,5.062
306,480.00,5.061
307,480.33,5.061
308,480.66,5.060
309,481.00,5.059
310,481.34,5.059
311,481.67,5.058
312,482.01,5.057
313,482.35,5.056
314,482.68,5.056
315,483.02,5.055
316,483.36,5.054
317,483.69,5.053
318,484.02,5.053
319,484.36,5.052
320,484.70,5.051
321,485.04,5.050
322,485.37,5.050
323,485.71,5.049
324,486.04,5.048
325,486.38,5.047
326,486.71,5.046
327,487.05,5.045
328,487.39,5.045
329,487.72,5.044
330,488.06,5.043
331,488.40,5.042
332,488.73,5.041
333,489.06,5.040
334,489.39,5.040
335,489.74,5.039
336,490.08,5.038
337,490.41,5.037
338,490.75,5.036
339,491.08,5.035
340,491.42,5.034
341,491.75,5.033
342,492.09,5.032
343,492.43,5.031
344,492.77,5.030
345,493.10,5.029
346,493.43,5.028
347,493.77,5.027
348,494.11,5.026
349,494.44,5.025
350,494.78,5.024
351,495.11,5.023
352,495.45,5.022
353,495.78,5.021
354,496.12,5.020
355,496.46,5.019
356,496.80,5.018
357,497.13,5.017
358,497.46,5.016
359,497.80,5.015
360,498.14,5.014
361,498.48,5.013
362,498.81,5.012
363,499.14,5.011
364,499.48,5.009
365,499.81,5.008
366,500.15,5.007
367,500.49,5.006
368,500.83,5.005
369,501.16,5.004
370,501.51,5.003
371,501.84,5.002
372,502.18,5.000
373,502.51,4.999
374,502.83,4.998
375,503.17,4.997
376,503.51,4.996
377,503.85,4.995
378,504.19,4.993
379,504.52,4.992
380,504.86,4.991
381,505.19,4.990
382,505.53,4.989
383,505.86,4.987
384,506.20,4.986
385,506.54,4.985
386,506.88,4.984
387,507.22,4.982
388,507.54,4.981
389,507.88,4.980
390,508.21,4.978
391,508.55,4.977
392,508.89,4.976
393,509.23,4.975
394,509.56,4.973
395,509.90,4.972
396,510.24,4.971
397,510.57,4.969
398,510.91,4.968
399,511.24,4.967
400,511.58,4.965
401,511.92,4.964
402,512.25,4.962
403,512.58,4.961
404,512.92,4.960
405,513.26,4.958
406,513.59,4.957
407,513.92,4.956
408,514.26,4.954
409,514.60,4.953
410,514.94,4.951
411,515.27,4.950
412,515.61,4.949
413,515.94,4.947
414,516.28,4.946
415,516.61,4.944
416,516.95,4.943
417,517.29,4.941
418,517.62,4.940
419,517.96,4.938
420,518.30,4.937
421,518.63,4.935
422,518.97,4.934
423,519.30,4.932
424,519.64,4.931
425,519.98,4.929
426,520.31,4.928
427,520.65,4.926
428,520.99,4.924
429,521.32,4.923
430,521.66,4.921
431,521.99,4.920
432,522.32,4.918
433,522.66,4.916
434,523.00,4.915
435,523.33,4.913
436,523.67,4.911
437,524.01,4.910
438,524.35,4.908
439,524.68,4.906
440,525.02,4.905
441,525.35,4.903
442,525.69,4.901
443,526.02,4.899
444,526.36,4.898
445,526.70,4.896
446,527.03,4.894
447,527.37,4.892
448,527.70,4.890
449,528.04,4.888
450,528.38,4.886
451,528.71,4.884
452,529.04,4.882
453,529.38,4.880
454,529.72,4.879
455,530.06,4.877
456,530.39,4.875
457,530.73,4.873
458,531.06,4.871
459,531.39,4.869
460,531.73,4.867
461,532.07,4.865
462,532.41,4.862
463,532.75,4.860
464,533.08,4.858
465,533.41,4.856
466,533.75,4.854
467,534.09,4.852
468,534.43,4.849
469,534.76,4.847
470,535.09,4.845
471,535.43,4.843
472,535.77,4.840
473,536.10,4.838
474,536.44,4.836
475,536.77,4.833
476,537.11,4.831
477,537.45,4.828
478,537.79,4.826
479,538.12,4.824
480,538.46,4.821
481,538.79,4.819
482,539.13,4.816
483,539.47,4.814
484,539.80,4.811
485,540.13,4.809
486,540.47,4.806
487,540.81,4.803
488,541.15,4.801
489,541.48,4.798
490,541.82,4.795
491,542.15,4.793
492,542.48,4.790
493,542.82,4.787
494,543.16,4.784
495,543.49,4.781
496,543.83,4.778
497,544.16,4.775
498,544.50,4.772
499,544.84,4.770
500,545.18,4.767
501,545.51,4.764
502,545.85,4.760
503,546.18,4.757
504,546.52,4.754
505,546.85,4.751
506,547.19,4.748
507,547.53,4.745
508,547.86,4.742
509,548.20,4.739
510,548.54,4.736
511,548.87,4.732
512,549.20,4.729
513,549.54,4.726
514,549.88,4.723
515,550.22,4.720
516,550.55,4.716
517,550.88,4.713
518,551.22,4.710
519,551.56,4.707
520,551.89,4.703
521,552.23,4.700
522,552.57,4.697
523,552.90,4.693
524,553.24,4.690
525,553.58,4.686
526,553.91,4.683
527,554.24,4.680
528,554.58,4.676
529,554.91,4.673
530,555.25,4.669
531,555.59,4.666
532,555.92,4.662
533,556.26,4.658
534,556.59,4.655
535,556.93,4.651
536,557.27,4.648
537,557.60,4.644
538,557.94,4.640
539,558.28,4.636
540,558.61,4.633
541,558.95,4.629
542,559.28,4.625
543,559.62,4.621
544,559.95,4.617
545,560.29,4.614
546,560.63,4.610
547,560.96,4.606
548,561.29,4.602
549,561.63,4.598
550,561.97,4.594
551,562.31,4.590
552,562.65,4.586
553,562.98,4.582
554,563.31,4.578
555,563.65,4.574
556,563.99,4.570
557,564.33,4.566
558,564.66,4.562
559,564.99,4.558
560,565.32,4.554
561,565.67,4.550
562,566.01,4.546
563,566.34,4.542
564,566.67,4.537
565,567.00,4.533
566,567.34,4.529
567,567.68,4.525
568,568.02,4.521
569,568.36,4.517
570,568.69,4.512
571,569.02,4.508
572,569.35,4.504
573,569.70,4.500
574,570.04,4.495
575,570.37,4.491
576,570.70,4.487
577,571.04,4.482
578,571.37,4.478
579,571.71,4.474
580,572.05,4.469
581,572.39,4.465
582,572.72,4.460
583,573.05,4.456
584,573.38,4.451
585,573.72,4.447
586,574.06,4.442
587,574.40,4.438
588,574.74,4.434
589,575.07,4.429
590,575.41,4.425
591,575.74,4.420
592,576.08,4.416
593,576.41,4.411
594,576.76,4.407
595,577.09,4.402
596,577.42,4.397
597,577.76,4.393
598,578.10,4.388
599,578.43,4.383
600,578.77,4.379
601,579.10,4.374
602,579.44,4.369
603,579.77,4.365
604,580.11,4.360
605,580.45,4.355
606,580.79,4.350
607,581.12,4.346
608,581.45,4.341
609,581.79,4.336
610,582.12,4.331
611,582.46,4.327
612,582.80,4.322
613,583.13,4.317
614,583.47,4.312
615,583.81,4.307
616,584.14,4.303
617,584.48,4.298
618,584.81,4.293
619,585.14,4.288
620,585.48,4.283
621,585.82,4.278
622,586.16,4.273
623,586.50,4.269
624,586.83,4.264
625,587.16,4.259
626,587.50,4.254
627,587.84,4.249
628,588.17,4.244
629,588.51,4.239
630,588.84,4.234
631,589.18,4.229
632,589.52,4.224
633,589.85,4.219
634,590.18,4.214
635,590.52,4.209
636,590.86,4.204
637,591.19,4.199
638,591.53,4.194
639,591.87,4.189
640,592.20,4.184
641,592.54,4.179
642,592.87,4.174
643,593.21,4.168
644,593.55,4.163
645,593.88,4.158
646,594.22,4.153
647,594.55,4.148
648,594.89,4.143
649,595.23,4.137
650,595.56,4.132
651,595.90,4.127
652,596.23,4.122
653,596.57,4.116
654,596.91,4.111
655,597.24,4.106
656,597.58,4.100
657,597.91,4.095
658,598.24,4.089
659,598.59,4.084
660,598.92,4.079
661,599.26,4.073
662,599.59,4.067
663,599.93,4.062
664,600.27,4.056
665,600.60,4.051
666,600.94,4.045
667,601.27,4.039
668,601.61,4.034
669,601.95,4.028
670,602.28,4.022
671,602.61,4.017
672,602.95,4.011
673,603.28,4.005
674,603.63,3.999
675,603.96,3.993
676,604.29,3.987
677,604.63,3.982
678,604.97,3.976
679,605.31,3.970
680,605.64,3.964
681,605.97,3.958
682,606.31,3.952
683,606.65,3.945
684,606.98,3.939
685,607.32,3.933
686,607.65,3.927
687,607.99,3.921
688,608.32,3.915
689,608.66,3.908
690,609.00,3.902
691,609.34,3.896
692,609.67,3.889
693,610.00,3.883
694,610.34,3.876
695,610.68,3.870
696,611.02,3.863
697,611.35,3.857
698,611.69,3.850
699,612.02,3.843
700,612.35,3.837
701,612.69,3.830
702,613.03,3.824
703,613.37,3.817
704,613.71,3.810
705,614.03,3.803
706,614.36,3.796
707,614.71,3.790
708,615.05,3.783
709,615.38,3.776
710,615.72,3.769
711,616.05,3.761
712,616.39,3.754
713,616.73,3.747
714,617.06,3.740
715,617.39,3.733
716,617.73,3.725
717,618.07,3.718
718,618.41,3.711
719,618.74,3.703
720,619.08,3.696
721,619.41,3.688
722,619.75,3.681
723,620.08,3.673
724,620.42,3.665
725,620.75,3.658
726,621.09,3.650
727,621.43,3.642
728,621.76,3.634
729,622.10,3.626
730,622.43,3.619
731,622.77,3.611
732,623.10,3.603
733,623.45,3.595
734,623.78,3.587
735,624.12,3.579
736,624.45,3.571
737,624.78,3.563
738,625.12,3.554
739,625.46,3.546
740,625.79,3.538
741,626.13,3.530
742,626.46,3.521
743,626.80,3.513
744,627.14,3.505
745,627.47,3.496
746,627.81,3.488
747,628.15,3.479
748,628.48,3.471
749,628.82,3.462
750,629.15,3.453
751,629.49,3.445
752,629.83,3.436
753,630.16,3.427
754,630.50,3.419
755,630.83,3.410
756,631.17,3.401
757,631.50,3.392
758,631.84,3.383
759,632.17,3.374
760,632.51,3.365
761,632.85,3.356
762,633.18,3.347
763,633.52,3.337
764,633.86,3.328
765,634.20,3.319
766,634.53,3.310
767,634.86,3.300
768,635.20,3.291
769,635.54,3.282
770,635.88,3.272
771,636.20,3.263
772,636.53,3.254
773,636.88,3.244
774,637.22,3.235
775,637.55,3.225
776,637.88,3.215
777,638.22,3.206
778,638.56,3.196
779,638.89,3.186
780,639.23,3.177
781,639.56,3.167
782,639.89,3.157
783,640.23,3.147
784,640.58,3.137
785,640.92,3.128
786,641.24,3.118
787,641.58,3.108
788,641.91,3.098
789,642.25,3.088
790,642.59,3.077
791,642.92,3.067
792,643.26,3.057
793,643.60,3.047
794,643.93,3.037
795,644.27,3.026
796,644.60,3.016
797,644.94,3.005
798,645.28,2.995
799,645.61,2.985
800,645.94,2.974
801,646.28,2.964
802,646.62,2.953
803,646.96,2.942
804,647.29,2.932
805,647.63,2.921
806,647.96,2.910
807,648.30,2.900
808,648.64,2.889
809,648.98,2.878
810,649.31,2.867
811,649.64,2.856
812,649.97,2.845
813,650.32,2.834
814,650.66,2.823
815,650.99,2.812
816,651.32,2.801
817,651.66,2.790
818,652.00,2.779
819,652.34,2.767
820,652.66,2.756
821,653.00,2.745
822,653.34,2.733
823,653.68,2.722
824,654.01,2.710
825,654.35,2.699
826,654.69,2.687
827,655.02,2.676
828,655.35,2.664
829,655.69,2.652
830,656.03,2.641
831,656.37,2.629
832,656.70,2.617
833,657.03,2.605
834,657.37,2.593
835,657.71,2.581
836,658.05,2.569
837,658.38,2.557
838,658.71,2.545
839,659.05,2.533
840,659.38,2.521
841,659.72,2.509
842,660.06,2.496
843,660.40,2.484
844,660.73,2.472
845,661.07,2.459
846,661.41,2.447
847,661.73,2.435
848,662.07,2.422
849,662.41,2.410
850,662.75,2.397
851,663.09,2.385
852,663.42,2.372
853,663.75,2.360
854,664.09,2.347
855,664.43,2.334
856,664.77,2.322
857,665.10,2.309
858,665.44,2.296
859,665.77,2.284
860,666.11,2.271
861,666.45,2.258
862,666.78,2.245
863,667.11,2.233
864,667.45,2.220
865,667.78,2.207
866,668.12,2.194
867,668.46,2.182
868,668.79,2.169
869,669.13,2.156
870,669.46,2.143
871,669.80,2.130
872,670.13,2.118
873,670.47,2.105
874,670.81,2.092
875,671.15,2.079
876,671.48,2.067
877,671.81,2.054
878,672.15,2.041
879,672.48,2.029
880,672.82,2.016
881,673.17,2.003
882,673.50,1.991
883,673.83,1.978
884,674.16,1.966
885,674.50,1.954
886,674.84,1.941
887,675.18,1.929
888,675.51,1.917
889,675.85,1.904
890,676.19,1.892
891,676.52,1.880
892,676.86,1.868
893,677.19,1.856
894,677.53,1.844
895,677.86,1.832
896,678.20,1.820
897,678.54,1.808
898,678.87,1.797
899,679.21,1.785
900,679.54,1.774
901,679.88,1.762
902,680.22,1.751
903,680.55,1.740
904,680.89,1.729
905,681.22,1.718
906,681.56,1.707
907,681.90,1.696
908,682.24,1.685
909,682.57,1.674
910,682.90,1.663
911,683.23,1.653
912,683.57,1.642
913,683.91,1.632
914,684.25,1.621
915,684.58,1.611
916,684.92,1.601
917,685.26,1.591
918,685.59,1.581
919,685.93,1.571
920,686.26,1.561
921,686.60,1.552
922,686.93,1.542
923,687.27,1.533
924,687.61,1.524
925,687.95,1.515
926,688.28,1.506
927,688.61,1.497
928,688.95,1.488
929,689.29,1.480
930,689.62,1.471
931,689.96,1.463
932,690.30,1.454
933,690.63,1.446
934,690.97,1.438
935,691.30,1.430
936,691.63,1.423
937,691.97,1.415
938,692.31,1.408
939,692.65,1.400
940,692.99,1.393
941,693.32,1.386
942,693.66,1.379
943,693.99,1.372
944,694.32,1.365
945,694.66,1.359
946,695.00,1.352
947,695.33,1.346
948,695.67,1.340
949,696.00,1.334
950,696.35,1.328
951,696.68,1.322
952,697.02,1.316
953,697.35,1.311
954,697.68,1.305
955,698.02,1.300
956,698.36,1.295
957,698.70,1.290
958,699.03,1.285
959,699.36,1.280
960,699.70,1.275
961,700.04,1.271
962,700.38,1.266
963,700.71,1.262
964,701.03,1.258
965,701.36,1.254
966,701.70,1.250
967,702.04,1.246
968,702.37,1.242
969,702.70,1.238
970,703.04,1.235
971,703.37,1.232
972,703.70,1.228
973,704.03,1.225
974,704.37,1.222
975,704.71,1.219
976,705.04,1.216
977,705.37,1.213
978,705.71,1.210
979,706.04,1.208
980,706.37,1.205
981,706.70,1.203
982,707.04,1.201
983,707.38,1.199
984,707.71,1.197
985,708.04,1.195
986,708.37,1.193
987,708.70,1.191
988,709.03,1.189
989,709.37,1.187
990,709.70,1.186
991,710.04,1.184
992,710.37,1.182
993,710.70,1.180
994,711.03,1.179
995,711.37,1.177
996,711.71,1.176
997,712.04,1.174
998,712.37,1.173
999,712.70,1.171
1000,713.04,1.170
1001,713.37,1.168
1002,713.71,1.167
1003,714.03,1.166
1004,714.37,1.164
1005,714.70,1.163
1006,715.04,1.162
1007,715.37,1.161
1008,715.71,1.159
1009,716.04,1.158
1010,716.37,1.157
1011,716.70,1.156
1012,717.04,1.155
1013,717.37,1.153
1014,717.71,1.152
1015,718.04,1.151
1016,718.37,1.150
1017,718.70,1.149
1018,719.04,1.148
1019,719.37,1.147
1020,719.70,1.146
1021,720.03,1.144
1022,720.37,1.143
1023,720.71,1.142
1024,721.03,1.141
1025,721.37,1.140
1026,721.70,1.139
1027,722.03,1.138
1028,722.37,1.137
1029,722.70,1.136
1030,723.04,1.135
1031,723.37,1.134
1032,723.70,1.133
1033,724.04,1.132
1034,724.37,1.131
1035,724.71,1.130
1036,725.04,1.129
1037,725.37,1.128
1038,725.71,1.127
1039,726.04,1.126
1040,726.37,1.125
1041,726.70,1.124
1042,727.04,1.123
1043,727.37,1.122
1044,727.71,1.121
1045,728.04,1.120
1046,728.37,1.119
1047,728.70,1.118
1048,729.04,1.117
1049,729.37,1.116
1050,729.71,1.115
1051,730.03,1.114
1052,730.37,1.113
1053,730.71,1.112
1054,731.03,1.111
1055,731.37,1.110
1056,731.70,1.109
1057,732.04,1.108
1058,732.38,1.108
1059,732.71,1.107
1060,733.04,1.106
1061,733.36,1.105
1062,733.70,1.104
1063,734.04,1.103
1064,734.37,1.102
1065,734.70,1.101
1066,735.04,1.100
1067,735.37,1.099
1068,735.71,1.098
1069,736.04,1.097
1070,736.38,1.096
1071,736.70,1.096
1072,737.04,1.095
1073,737.37,1.094
1074,737.70,1.093
1075,738.04,1.092
1076,738.37,1.091
1077,738.71,1.090
1078,739.03,1.089
1079,739.37,1.088
1080,739.70,1.087
1081,740.04,1.086
1082,740.37,1.085
1083,740.71,1.085
1084,741.04,1.084
1085,741.38,1.083
1086,741.70,1.082
1087,742.04,1.081
1088,742.37,1.080
1089,742.70,1.079
1090,743.04,1.079
1091,743.37,1.078
1092,743.70,1.077
1093,744.04,1.076
1094,744.37,1.075
1095,744.71,1.074
1096,745.04,1.073
1097,745.37,1.072
1098,745.71,1.072
1099,746.04,1.071
1100,746.36,1.070
1101,746.70,1.069
1102,747.04,1.068
1103,747.37,1.067
1104,747.70,1.066
1105,748.04,1.066
1106,748.37,1.065
1107,748.70,1.064
1108,749.04,1.063
1109,749.37,1.062
1110,749.70,1.061
1111,750.04,1.060
1112,750.37,1.059
1113,750.70,1.059
1114,751.04,1.058
1115,751.37,1.057
1116,751.70,1.056
1117,752.04,1.055
1118,752.38,1.054
1119,752.70,1.053
1120,753.04,1.053
1121,753.38,1.052
1122,753.71,1.051
1123,754.03,1.050
1124,754.37,1.049
1125,754.71,1.048
1126,755.04,1.048
1127,755.38,1.047
1128,755.71,1.046
1129,756.04,1.045
1130,756.37,1.044
1131,756.71,1.043
1132,757.04,1.043
1133,757.37,1.042
1134,757.71,1.041
1135,758.04,1.040
1136,758.37,1.040
1137,758.70,1.039
1138,759.04,1.038
1139,759.38,1.037
1140,759.71,1.037
1141,760.04,1.036
1142,760.37,1.035
1143,760.70,1.034
1144,761.04,1.034
1145,761.37,1.033
1146,761.71,1.032
1147,762.04,1.031
1148,762.38,1.030
1149,762.71,1.030
1150,763.04,1.029
1151,763.37,1.028
1152,763.71,1.027
1153,764.04,1.027
1154,764.37,1.026
1155,764.70,1.025
1156,765.04,1.024
1157,765.37,1.024
1158,765.71,1.023
1159,766.04,1.022
1160,766.37,1.021
1161,766.71,1.021
1162,767.04,1.020
1163,767.37,1.019
1164,767.71,1.018
1165,768.04,1.017
1166,768.38,1.017
1167,768.71,1.016
1168,769.04,1.015
1169,769.37,1.014
1170,769.71,1.014
1171,770.04,1.013
1172,770.37,1.012
1173,770.70,1.012
1174,771.04,1.011
1175,771.38,1.010
1176,771.71,1.010
1177,772.04,1.009
1178,772.37,1.008
1179,772.71,1.008
1180,773.04,1.007
1181,773.37,1.006
1182,773.70,1.006
1183,774.04,1.005
1184,774.37,1.004
1185,774.71,1.004
1186,775.04,1.003
1187,775.37,1.002
1188,775.71,1.002
1189,776.04,1.001
1190,776.37,1.000
1191,776.71,1.000
1192,777.05,0.999
1193,777.37,0.998
1194,777.71,0.998
1195,778.04,0.997
1196,778.37,0.997
1197,778.71,0.996
1198,779.05,0.995
1199,779.37,0.995
1200,779.71,0.994
1201,780.04,0.993
1202,780.38,0.993
1203,780.71,0.992
1204,781.04,0.992
1205,781.38,0.991
1206,781.71,0.990
1207,782.05,0.990
1208,782.38,0.989
1209,782.71,0.989
1210,783.04,0.988
1211,783.37,0.987
1212,783.71,0.987
1213,784.04,0.986
1214,784.38,0.986
1215,784.71,0.985
1216,785.04,0.985
1217,785.37,0.984
1218,785.71,0.983
1219,786.04,0.983
1220,786.37,0.982
1221,786.70,0.982
1222,787.04,0.981
1223,787.38,0.981
1224,787.71,0.980
1225,788.04,0.979
1226,788.37,0.979
1227,788.71,0.978
1228,789.04,0.978
1229,789.37,0.977
1230,789.70,0.977
1231,790.04,0.976
1232,790.38,0.976
1233,790.71,0.975
1234,791.04,0.975
1235,791.37,0.974
1236,791.71,0.973
1237,792.05,0.973
1238,792.38,0.972
1239,792.70,0.972
1240,793.04,0.971
1241,793.38,0.971
1242,793.71,0.970
1243,794.04,0.970
1244,794.37,0.969
1245,794.71,0.969
1246,795.04,0.968
1247,795.37,0.968
1248,795.71,0.967
1249,796.04,0.967
1250,796.37,0.966
1251,796.71,0.966
1252,797.05,0.965
1253,797.38,0.965
1254,797.71,0.964
1255,798.04,0.964
1256,798.37,0.963
1257,798.71,0.963
1258,799.05,0.962
1259,799.38,0.962
1260,799.71,0.961
1261,800.04,0.961
1262,800.37,0.960
1263,800.71,0.960
1264,801.04,0.959
1265,801.38,0.959
1266,801.71,0.958
1267,802.04,0.958
1268,802.37,0.957
1269,802.71,0.957
1270,803.05,0.956
1271,803.38,0.956
1272,803.71,0.955
1273,804.04,0.955
1274,804.38,0.954
1275,804.71,0.954
1276,805.04,0.953
1277,805.37,0.953
1278,805.72,0.952
1279,806.04,0.952
1280,806.38,0.952
1281,806.71,0.951
1282,807.05,0.951
1283,807.38,0.950
1284,807.71,0.950
1285,808.04,0.949
1286,808.38,0.949
1287,808.71,0.948
1288,809.04,0.948
1289,809.38,0.948
1290,809.71,0.947
1291,810.04,0.947
1292,810.38,0.946
1293,810.71,0.946
1294,811.04,0.945
1295,811.37,0.945
1296,811.71,0.945
1297,812.05,0.944
1298,812.38,0.944
1299,812.71,0.943
1300,813.04,0.943
1301,813.38,0.943
1302,813.71,0.942
1303,814.05,0.942
1304,814.38,0.942
1305,814.71,0.941
1306,815.05,0.941
1307,815.38,0.940
1308,815.71,0.940
1309,816.05,0.940
1310,816.38,0.939
1311,816.71,0.939
1312,817.04,0.938
1313,817.38,0.938
1314,817.71,0.938
1315,818.05,0.937
1316,818.38,0.937
1317,818.72,0.936
1318,819.04,0.936
1319,819.38,0.936
1320,819.71,0.935
1321,820.04,0.935
1322,820.38,0.934
1323,820.71,0.934
1324,821.05,0.934
1325,821.38,0.933
1326,821.71,0.933
1327,822.04,0.932
1328,822.38,0.932
1329,822.72,0.931
1330,823.04,0.931
1331,823.37,0.931
1332,823.71,0.930
1333,824.05,0.930
1334,824.38,0.930
1335,824.71,0.929
1336,825.04,0.929
1337,825.38,0.928
1338,825.72,0.928
1339,826.04,0.928
1340,826.38,0.927
1341,826.71,0.927
1342,827.05,0.926
1343,827.38,0.926
1344,827.71,0.926
1345,828.04,0.925
1346,828.38,0.925
1347,828.71,0.925
1348,829.04,0.924
1349,829.38,0.924
1350,829.72,0.923
1351,830.05,0.923
1352,830.37,0.923
1353,830.71,0.922
1354,831.05,0.922
1355,831.39,0.922
1356,831.72,0.921
1357,832.05,0.921
1358,832.38,0.921
1359,832.72,0.920
1360,833.05,0.920
1361,833.38,0.920
1362,833.72,0.919
1363,834.05,0.919
1364,834.38,0.918
1365,834.72,0.918
1366,835.05,0.918
1367,835.38,0.917
1368,835.72,0.917
1369,836.05,0.916
1370,836.38,0.916
1371,836.72,0.916
1372,837.05,0.915
1373,837.38,0.915
1374,837.71,0.915
1375,838.05,0.914
1376,838.39,0.914
1377,838.72,0.914
1378,839.05,0.913
1379,839.38,0.913
1380,839.71,0.912
1381,840.05,0.912
1382,840.38,0.912
1383,840.72,0.911
1384,841.05,0.911
1385,841.38,0.911
1386,841.72,0.910
1387,842.05,0.910
1388,842.39,0.910
1389,842.72,0.909
1390,843.05,0.909
1391,843.38,0.909
1392,843.71,0.908
1393,844.05,0.908
1394,844.38,0.908
1395,844.71,0.907
1396,845.05,0.907
1397,845.38,0.907
1398,845.72,0.906
1399,846.06,0.906
1400,846.38,0.906
1401,846.71,0.905
1402,847.05,0.905
1403,847.38,0.905
1404,847.72,0.904
1405,848.05,0.904
1406,848.38,0.904
1407,848.71,0.903
1408,849.05,0.903
1409,849.38,0.903
1410,849.72,0.902
1411,850.05,0.902
1412,850.39,0.901
1413,850.72,0.901
1414,851.05,0.901
1415,851.38,0.900
1416,851.72,0.900
1417,852.05,0.900
1418,852.38,0.899
1419,852.72,0.899
1420,853.06,0.899
1421,853.39,0.898
1422,853.72,0.898
1423,854.05,0.898
1424,854.38,0.897
1425,854.71,0.897
1426,855.06,0.897
1427,855.38,0.896
1428,855.72,0.896
1429,856.05,0.896
1430,856.38,0.895
1431,856.72,0.895
1432,857.05,0.895
1433,857.39,0.895
1434,857.72,0.894
1435,858.05,0.894
1436,858.38,0.894
1437,858.72,0.893
1438,859.06,0.893
1439,859.39,0.893
1440,859.71,0.892
1441,860.05,0.892
1442,860.39,0.892
1443,860.72,0.891
1444,861.05,0.891
1445,861.38,0.891
1446,861.71,0.890
1447,862.05,0.890
1448,862.39,0.890
1449,862.72,0.889
1450,863.06,0.889
1451,863.39,0.889
1452,863.72,0.888
1453,864.05,0.888
1454,864.38,0.888
1455,864.72,0.887
1456,865.06,0.887
1457,865.38,0.887
1458,865.72,0.887
1459,866.06,0.886
1460,866.38,0.886
1461,866.72,0.886
1462,867.06,0.885
1463,867.39,0.885
1464,867.72,0.885
1465,868.06,0.884
1466,868.39,0.884
1467,868.72,0.884
1468,869.05,0.883
1469,869.39,0.883
1470,869.73,0.883
1471,870.05,0.883
1472,870.39,0.882
1473,870.73,0.882
1474,871.06,0.882
1475,871.39,0.881
1476,871.72,0.881
1477,872.05,0.881
1478,872.38,0.880
1479,872.72,0.880
1480,873.05,0.880
1481,873.39,0.879
1482,873.72,0.879
1483,874.06,0.879
1484,874.39,0.879
1485,874.72,0.878
1486,875.06,0.878
1487,875.39,0.878
1488,875.72,0.877
1489,876.05,0.877
1490,876.39,0.877
1491,876.72,0.876
1492,877.06,0.876
1493,877.39,0.876
1494,877.72,0.876
1495,878.05,0.875
1496,878.39,0.875
1497,878.73,0.875
1498,879.06,0.874
1499,879.39,0.874
1500,879.72,0.874
1501,880.06,0.873
1502,880.39,0.873
1503,880.72,0.873
1504,881.05,0.872
1505,881.39,0.872
1506,881.72,0.872
1507,882.05,0.872
1508,882.39,0.871
1509,882.72,0.871
1510,883.06,0.871
1511,883.39,0.871
1512,883.72,0.870
1513,884.06,0.870
1514,884.39,0.870
1515,884.72,0.869
1516,885.06,0.869
1517,885.40,0.869
1518,885.73,0.868
1519,886.06,0.868
1520,886.39,0.868
1521,886.72,0.868
1522,887.06,0.867
1523,887.39,0.867
1524,887.72,0.867
1525,888.05,0.866
1526,888.40,0.866
1527,888.73,0.866
1528,889.06,0.866
1529,889.39,0.865
1530,889.72,0.865
1531,890.06,0.865
1532,890.39,0.865
1533,890.72,0.864
1534,891.06,0.864
1535,891.39,0.864
1536,891.72,0.863
1537,892.06,0.863
1538,892.39,0.863
1539,892.72,0.863
1540,893.06,0.862
1541,893.39,0.862
1542,893.73,0.862
1543,894.06,0.862
1544,894.39,0.861
1545,894.73,0.861
1546,895.06,0.861
1547,895.39,0.860
1548,895.72,0.860
1549,896.06,0.860
1550,896.39,0.860
1551,896.73,0.859
1552,897.06,0.859
1553,897.39,0.859
1554,897.72,0.859
1555,898.06,0.858
1556,898.40,0.858
1557,898.73,0.858
1558,899.06,0.858
1559,899.39,0.857
1560,899.72,0.857
1561,900.06,0.857
1562,900.40,0.857
1563,900.72,0.856
1564,901.06,0.856
1565,901.40,0.856
1566,901.73,0.856
1567,902.06,0.855
1568,902.39,0.855
1569,902.72,0.855
1570,903.06,0.855
1571,903.39,0.854
1572,903.73,0.854
1573,904.06,0.854
1574,904.40,0.854
1575,904.73,0.853
1576,905.07,0.853
1577,905.40,0.853
1578,905.73,0.852
1579,906.06,0.852
1580,906.39,0.852
1581,906.73,0.852
1582,907.07,0.851
1583,907.39,0.851
1584,907.72,0.851
1585,908.06,0.851
1586,908.40,0.850
1587,908.73,0.850
1588,909.07,0.850
1589,909.40,0.849
1590,909.72,0.849
1591,910.06,0.849
1592,910.40,0.849
1593,910.73,0.848
1594,911.06,0.848
1595,911.40,0.848
1596,911.74,0.847
1597,912.06,0.847
1598,912.39,0.847
1599,912.72,0.847
1600,913.06,0.846
1601,913.40,0.846
1602,913.73,0.846
1603,914.07,0.845
1604,914.40,0.845
1605,914.73,0.845
1606,915.06,0.845
1607,915.39,0.844
1608,915.72,0.844
1609,916.06,0.844
1610,916.40,0.843
1611,916.73,0.843
1612,917.06,0.843
1613,917.40,0.843
1614,917.73,0.842
1615,918.07,0.842
1616,918.40,0.842
1617,918.73,0.841
1618,919.06,0.841
1619,919.40,0.841
1620,919.73,0.841
1621,920.06,0.840
1622,920.40,0.840
1623,920.73,0.840
1624,921.06,0.840
1625,921.40,0.839
1626,921.73,0.839
1627,922.06,0.839
1628,922.39,0.838
1629,922.73,0.838
1630,923.06,0.838
1631,923.39,0.838
1632,923.73,0.837
1633,924.06,0.837
1634,924.39,0.837
1635,924.73,0.837
1636,925.06,0.836
1637,925.40,0.836
1638,925.73,0.836
1639,926.06,0.836
1640,926.40,0.835
1641,926.73,0.835
1642,927.07,0.835
1643,927.40,0.835
1644,927.74,0.834
1645,928.06,0.834
1646,928.39,0.834
1647,928.74,0.833
1648,929.07,0.833
1649,929.39,0.833
1650,929.73,0.833
1651,930.07,0.832
1652,930.40,0.832
1653,930.73,0.832
1654,931.07,0.832
1655,931.40,0.831
1656,931.73,0.831
1657,932.06,0.831
1658,932.40,0.831
1659,932.73,0.830
1660,933.06,0.830
1661,933.40,0.830
1662,933.73,0.830
1663,934.07,0.829
1664,934.40,0.829
1665,934.73,0.829
1666,935.06,0.829
1667,935.40,0.829
1668,935.73,0.828
1669,936.06,0.828
1670,936.40,0.828
1671,936.74,0.828
1672,937.06,0.827
1673,937.39,0.827
1674,937.73,0.827
1675,938.06,0.827
1676,938.40,0.826
1677,938.73,0.826
1678,939.07,0.826
1679,939.40,0.826
1680,939.73,0.826
1681,940.07,0.825
1682,940.40,0.825
1683,940.73,0.825
1684,941.06,0.825
1685,941.40,0.824
1686,941.73,0.824
1687,942.06,0.824
1688,942.40,0.824
1689,942.73,0.823
1690,943.06,0.823
1691,943.39,0.823
1692,943.73,0.823
1693,944.06,0.822
1694,944.40,0.822
1695,944.73,0.822
1696,945.07,0.822
1697,945.40,0.821
1698,945.73,0.821
1699,946.06,0.821
1700,946.40,0.821
1701,946.73,0.820
1702,947.07,0.820
1703,947.40,0.820
1704,947.73,0.820
1705,948.07,0.819
1706,948.40,0.819
1707,948.73,0.819
1708,949.06,0.819
1709,949.40,0.818
1710,949.74,0.818
1711,950.07,0.818
1712,950.40,0.818
1713,950.73,0.817
1714,951.07,0.817
1715,951.40,0.817
1716,951.73,0.817
1717,952.06,0.816
1718,952.40,0.816
1719,952.73,0.816
1720,953.07,0.816
1721,953.40,0.815
1722,953.73,0.815
1723,954.07,0.815
1724,954.40,0.815
1725,954.74,0.814
1726,955.07,0.814
1727,955.40,0.814
1728,955.73,0.814
1729,956.07,0.813
1730,956.40,0.813
1731,956.73,0.813
1732,957.07,0.813
1733,957.40,0.812
1734,957.73,0.812
1735,958.06,0.812
1736,958.40,0.812
1737,958.73,0.811
1738,959.07,0.811
1739,959.40,0.811
1740,959.74,0.811
1741,960.07,0.810
1742,960.40,0.810
1743,960.74,0.810
1744,961.07,0.810
1745,961.40,0.809
1746,961.73,0.809
1747,962.07,0.809
1748,962.40,0.809
1749,962.73,0.809
1750,963.07,0.808
1751,963.40,0.808
1752,963.73,0.808
1753,964.06,0.808
1754,964.40,0.807
1755,964.73,0.807
1756,965.06,0.807
1757,965.40,0.807
1758,965.74,0.807
1759,966.06,0.806
1760,966.39,0.806
1761,966.74,0.806
1762,967.07,0.806
1763,967.40,0.806
1764,967.73,0.805
1765,968.07,0.805
1766,968.40,0.805
1767,968.73,0.805
1768,969.07,0.805
1769,969.41,0.804
1770,969.74,0.804
1771,970.07,0.804
1772,970.40,0.804
1773,970.74,0.804
1774,971.07,0.804
1775,971.40,0.803
1776,971.73,0.803
1777,972.07,0.803
1778,972.40,0.803
1779,972.73,0.803
1780,973.06,0.802
1781,973.40,0.802
1782,973.74,0.802
1783,974.06,0.802
1784,974.40,0.802
1785,974.73,0.801
1786,975.07,0.801
1787,975.40,0.801
1788,975.73,0.801
1789,976.07,0.801
1790,976.40,0.800
1791,976.73,0.800
1792,977.07,0.800
1793,977.40,0.800
1794,977.73,0.800
1795,978.06,0.799
1796,978.40,0.799
1797,978.74,0.799
1798,979.07,0.799
1799,979.40,0.799
1800,979.73,0.799
1801,980.07,0.798
1802,980.40,0.798
1803,980.74,0.798
1804,981.06,0.798
1805,981.40,0.798
1806,981.74,0.797
1807,982.07,0.797
1808,982.40,0.797
1809,982.74,0.797
1810,983.07,0.797
1811,983.40,0.797
1812,983.73,0.796
1813,984.07,0.796
1814,984.40,0.796
1815,984.73,0.796
1816,985.07,0.796
1817,985.40,0.796
1818,985.73,0.795
1819,986.06,0.795
1820,986.40,0.795
1821,986.73,0.795
1822,987.07,0.795
1823,987.40,0.795
1824,987.73,0.794
1825,988.07,0.794
1826,988.41,0.794
1827,988.74,0.794
1828,989.07,0.794
1829,989.40,0.794
1830,989.73,0.793
1831,990.07,0.793
1832,990.40,0.793
1833,990.73,0.793
1834,991.06,0.793
1835,991.40,0.793
1836,991.74,0.792
1837,992.06,0.792
1838,992.40,0.792
1839,992.74,0.792
1840,993.07,0.792
1841,993.40,0.792
1842,993.73,0.792
1843,994.07,0.791
1844,994.40,0.791
1845,994.73,0.791
1846,995.07,0.791
1847,995.40,0.791
1848,995.74,0.791
1849,996.07,0.791
1850,996.40,0.790
1851,996.74,0.790
1852,997.07,0.790
1853,997.40,0.790
1854,997.73,0.790
1855,998.07,0.790
1856,998.40,0.790
1857,998.73,0.789
1858,999.07,0.789
1859,999.41,0.789
1860,999.74,0.789
1861,1000.07,0.789
1862,1000.40,0.789
1863,1000.74,0.789
1864,1001.07,0.789
1865,1001.40,0.788
1866,1001.73,0.788
1867,1002.07,0.788
1868,1002.40,0.788
1869,1002.73,0.788
1870,1003.07,0.788
1871,1003.40,0.788
1872,1003.73,0.788
1873,1004.07,0.787
1874,1004.41,0.787
1875,1004.73,0.787
1876,1005.06,0.787
1877,1005.40,0.787
1878,1005.73,0.787
1879,1006.07,0.787
1880,1006.40,0.786
1881,1006.73,0.786
1882,1007.07,0.786
1883,1007.41,0.786
1884,1007.74,0.786
1885,1008.06,0.786
1886,1008.40,0.786
1887,1008.73,0.785
1888,1009.07,0.785
1889,1009.41,0.785
1890,1009.73,0.785
1891,1010.06,0.785
1892,1010.39,0.785
1893,1010.74,0.784
1894,1011.07,0.784
1895,1011.40,0.784
1896,1011.74,0.784
1897,1012.07,0.784
1898,1012.40,0.783
1899,1012.73,0.783
1900,1013.07,0.783
1901,1013.40,0.783
1902,1013.73,0.783
1903,1014.07,0.783
1904,1014.40,0.782
1905,1014.74,0.782
1906,1015.06,0.782
1907,1015.40,0.782
1908,1015.74,0.782
1909,1016.07,0.781
1910,1016.40,0.781
1911,1016.74,0.781
1912,1017.07,0.781
1913,1017.40,0.781
1914,1017.74,0.780
1915,1018.07,0.780
1916,1018.40,0.780
1917,1018.73,0.780
1918,1019.07,0.780
1919,1019.40,0.780
1920,1019.73,0.779
1921,1020.06,0.779
1922,1020.40,0.779
1923,1020.73,0.779
1924,1021.06,0.779
1925,1021.40,0.779
1926,1021.74,0.779
1927,1022.06,0.778
1928,1022.40,0.778
1929,1022.74,0.778
1930,1023.07,0.778
1931,1023.40,0.778
1932,1023.73,0.778
1933,1024.07,0.777
1934,1024.40,0.777
1935,1024.73,0.777
1936,1025.06,0.777
1937,1025.40,0.777
1938,1025.73,0.777
1939,1026.07,0.777
1940,1026.40,0.776
1941,1026.74,0.776
1942,1027.06,0.776
1943,1027.40,0.776
1944,1027.73,0.776
1945,1028.07,0.776
1946,1028.40,0.775
1947,1028.74,0.775
1948,1029.06,0.775
1949,1029.40,0.775
1950,1029.74,0.775
1951,1030.07,0.775
1952,1030.40,0.775
1953,1030.73,0.774
1954,1031.06,0.774
1955,1031.41,0.774
1956,1031.73,0.774
1957,1032.06,0.774
1958,1032.40,0.774
1959,1032.73,0.774
1960,1033.07,0.774
1961,1033.40,0.773
1962,1033.74,0.773
1963,1034.07,0.773
1964,1034.40,0.773
1965,1034.74,0.773
1966,1035.07,0.773
1967,1035.40,0.773
1968,1035.73,0.772
1969,1036.07,0.772
1970,1036.40,0.772
1971,1036.74,0.772
1972,1037.07,0.772
1973,1037.40,0.772
1974,1037.73,0.772
1975,1038.07,0.772
1976,1038.41,0.771
1977,1038.73,0.771
1978,1039.07,0.771
1979,1039.40,0.771
1980,1039.74,0.771
1981,1040.07,0.771
1982,1040.40,0.771
1983,1040.73,0.770
1984,1041.06,0.770
1985,1041.40,0.770
1986,1041.73,0.770
1987,1042.06,0.770
1988,1042.40,0.770
1989,1042.73,0.770
1990,1043.06,0.770
1991,1043.40,0.769
1992,1043.73,0.769
1993,1044.06,0.769
1994,1044.40,0.769
1995,1044.74,0.769
1996,1045.06,0.769
1997,1045.40,0.769
1998,1045.73,0.769
1999,1046.06,0.769
2000,1046.40,0.768
2001,1046.74,0.768
2002,1047.06,0.768
2003,1047.39,0.768
2004,1047.73,0.768
2005,1048.06,0.768
2006,1048.40,0.768
2007,1048.73,0.768
2008,1049.06,0.767
2009,1049.40,0.767
2010,1049.74,0.767
2011,1050.07,0.767
2012,1050.39,0.767
2013,1050.73,0.767
2014,1051.07,0.767
2015,1051.39,0.766
2016,1051.73,0.766
2017,1052.06,0.766
2018,1052.40,0.766
2019,1052.73,0.766
2020,1053.07,0.766
2021,1053.40,0.766
2022,1053.73,0.765
2023,1054.07,0.765
2024,1054.40,0.765
2025,1054.74,0.765
2026,1055.06,0.765
2027,1055.40,0.765
2028,1055.73,0.765
2029,1056.07,0.765
2030,1056.40,0.764
2031,1056.74,0.764
2032,1057.07,0.764
2033,1057.40,0.764
2034,1057.72,0.764
2035,1058.07,0.764
2036,1058.40,0.764
2037,1058.73,0.763
2038,1059.06,0.763
2039,1059.39,0.763
2040,1059.74,0.763
2041,1060.06,0.763
2042,1060.39,0.763
2043,1060.73,0.763
2044,1061.07,0.762
2045,1061.41,0.762
2046,1061.74,0.762
2047,1062.06,0.762
2048,1062.39,0.762
2049,1062.74,0.762
2050,1063.06,0.762
2051,1063.40,0.761
2052,1063.73,0.761
2053,1064.06,0.761
2054,1064.40,0.761
2055,1064.73,0.761
2056,1065.06,0.761
2057,1065.40,0.761
2058,1065.74,0.761
2059,1066.07,0.761
2060,1066.39,0.760
2061,1066.73,0.760
2062,1067.07,0.760
2063,1067.40,0.760
2064,1067.73,0.760
2065,1068.07,0.760
2066,1068.40,0.760
2067,1068.73,0.760
2068,1069.06,0.760
2069,1069.40,0.759
2070,1069.73,0.759
2071,1070.06,0.759
2072,1070.40,0.759
2073,1070.73,0.759
2074,1071.06,0.759
2075,1071.40,0.759
2076,1071.73,0.759
2077,1072.05,0.758
2078,1072.39,0.758
2079,1072.73,0.758
2080,1073.06,0.758
2081,1073.40,0.758
2082,1073.73,0.758
2083,1074.07,0.757
2084,1074.40,0.757
2085,1074.74,0.757
2086,1075.07,0.757
2087,1075.40,0.757
2088,1075.73,0.757
2089,1076.06,0.757
2090,1076.40,0.756
2091,1076.73,0.756
2092,1077.06,0.756
2093,1077.40,0.756
2094,1077.74,0.756
2095,1078.06,0.756
2096,1078.39,0.756
2097,1078.74,0.755
2098,1079.06,0.755
2099,1079.39,0.755
2100,1079.72,0.755
2101,1080.07,0.755
2102,1080.40,0.755
2103,1080.72,0.755
2104,1081.06,0.755
2105,1081.40,0.754
2106,1081.73,0.754
2107,1082.06,0.754
2108,1082.39,0.754
2109,1082.73,0.754
2110,1083.06,0.754
2111,1083.39,0.754
2112,1083.73,0.754
2113,1084.06,0.753
2114,1084.39,0.753
2115,1084.73,0.753
2116,1085.06,0.753
2117,1085.40,0.753
2118,1085.74,0.753
2119,1086.06,0.753
2120,1086.39,0.753
2121,1086.72,0.752
2122,1087.07,0.752
2123,1087.40,0.752
2124,1087.73,0.752
2125,1088.06,0.752
2126,1088.39,0.752
2127,1088.73,0.752
2128,1089.06,0.751
2129,1089.40,0.751
2130,1089.73,0.751
2131,1090.07,0.751
2132,1090.40,0.751
2133,1090.73,0.751
2134,1091.06,0.751
2135,1091.40,0.750
2136,1091.73,0.750
2137,1092.07,0.750
2138,1092.39,0.750
2139,1092.73,0.750
2140,1093.06,0.750
2141,1093.39,0.750
2142,1093.73,0.749
2143,1094.07,0.749
2144,1094.40,0.749
2145,1094.73,0.749
2146,1095.06,0.749
2147,1095.40,0.749
2148,1095.73,0.749
2149,1096.06,0.749
2150,1096.39,0.748
2151,1096.73,0.748
2152,1097.06,0.748
2153,1097.40,0.748
2154,1097.73,0.748
2155,1098.06,0.748
2156,1098.40,0.748
2157,1098.73,0.748
2158,1099.06,0.747
2159,1099.39,0.747
2160,1099.73,0.747
2161,1100.06,0.747
2162,1100.40,0.747
2163,1100.73,0.747
2164,1101.06,0.747
2165,1101.39,0.747
2166,1101.73,0.746
2167,1102.07,0.746
2168,1102.39,0.746
2169,1102.72,0.746
2170,1103.06,0.746
2171,1103.40,0.746
2172,1103.72,0.746
2173,1104.06,0.746
2174,1104.40,0.746
2175,1104.74,0.745
2176,1105.06,0.745
2177,1105.39,0.745
2178,1105.73,0.745
2179,1106.06,0.745
2180,1106.40,0.745
2181,1106.73,0.745
2182,1107.06,0.744
2183,1107.39,0.744
2184,1107.72,0.744
2185,1108.06,0.744
2186,1108.40,0.744
2187,1108.73,0.744
2188,1109.06,0.743
2189,1109.39,0.743
2190,1109.73,0.743
2191,1110.06,0.743
2192,1110.39,0.743
2193,1110.73,0.743
2194,1111.06,0.743
2195,1111.40,0.743
2196,1111.72,0.743
2197,1112.05,0.742
2198,1112.39,0.742
2199,1112.73,0.742
2200,1113.06,0.742
2201,1113.39,0.742
2202,1113.73,0.742
2203,1114.06,0.742
2204,1114.39,0.742
2205,1114.73,0.742
2206,1115.07,0.741
2207,1115.40,0.741
2208,1115.72,0.741
2209,1116.05,0.741
2210,1116.40,0.741
2211,1116.73,0.741
2212,1117.06,0.741
2213,1117.39,0.741
2214,1117.72,0.741
2215,1118.06,0.740
2216,1118.39,0.740
2217,1118.72,0.740
2218,1119.06,0.740
2219,1119.39,0.740
2220,1119.73,0.740
2221,1120.06,0.740
2222,1120.39,0.739
2223,1120.72,0.739
2224,1121.05,0.739
2225,1121.40,0.739
2226,1121.73,0.739
2227,1122.06,0.739
2228,1122.40,0.739
2229,1122.73,0.739
2230,1123.06,0.738
2231,1123.39,0.738
2232,1123.72,0.738
2233,1124.06,0.738
2234,1124.40,0.738
2235,1124.72,0.738
2236,1125.05,0.738
2237,1125.39,0.737
2238,1125.72,0.737
2239,1126.06,0.737
2240,1126.40,0.737
2241,1126.72,0.737
2242,1127.05,0.737
2243,1127.40,0.737
2244,1127.73,0.737
2245,1128.05,0.736
2246,1128.39,0.736
2247,1128.72,0.736
2248,1129.06,0.736
2249,1129.39,0.736
2250,1129.72,0.736
2251,1130.06,0.736
2252,1130.40,0.736
2253,1130.73,0.735
2254,1131.05,0.735
2255,1131.39,0.735
2256,1131.73,0.735
2257,1132.06,0.735
2258,1132.39,0.735
2259,1132.72,0.735
2260,1133.06,0.735
2261,1133.39,0.734
2262,1133.73,0.734
2263,1134.06,0.734
2264,1134.39,0.734
2265,1134.72,0.734
2266,1135.06,0.734
2267,1135.39,0.734
2268,1135.73,0.734
2269,1136.06,0.734
2270,1136.39,0.734
2271,1136.72,0.733
2272,1137.05,0.733
2273,1137.40,0.733
2274,1137.72,0.733
2275,1138.05,0.733
2276,1138.39,0.733
2277,1138.73,0.733
2278,1139.05,0.732
2279,1139.39,0.732
2280,1139.73,0.732
2281,1140.06,0.732
2282,1140.39,0.732
2283,1140.72,0.732
2284,1141.06,0.732
2285,1141.40,0.731
2286,1141.73,0.731
2287,1142.06,0.731
2288,1142.38,0.731
2289,1142.72,0.731
2290,1143.06,0.731
2291,1143.39,0.731
2292,1143.72,0.730
2293,1144.05,0.730
2294,1144.40,0.730
2295,1144.72,0.730
2296,1145.05,0.730
2297,1145.38,0.730
2298,1145.72,0.730
2299,1146.06,0.730
2300,1146.39,0.729
2301,1146.73,0.729
2302,1147.06,0.729
2303,1147.39,0.729
2304,1147.72,0.729
2305,1148.06,0.729
2306,1148.39,0.729
2307,1148.71,0.729
2308,1149.05,0.728
2309,1149.39,0.728
2310,1149.72,0.728
2311,1150.06,0.728
2312,1150.40,0.728
2313,1150.72,0.728
2314,1151.05,0.728
2315,1151.39,0.727
2316,1151.73,0.727
2317,1152.05,0.727
2318,1152.39,0.727
2319,1152.72,0.727
2320,1153.05,0.727
2321,1153.39,0.727
2322,1153.72,0.726
2323,1154.05,0.726
2324,1154.39,0.726
2325,1154.72,0.726
2326,1155.06,0.726
2327,1155.39,0.726
2328,1155.72,0.726
2329,1156.06,0.725
2330,1156.39,0.725
2331,1156.72,0.725
2332,1157.06,0.725
2333,1157.39,0.725
2334,1157.72,0.725
2335,1158.06,0.725
2336,1158.39,0.725
2337,1158.73,0.725
2338,1159.06,0.724
2339,1159.39,0.724
2340,1159.72,0.724
2341,1160.06,0.724
2342,1160.39,0.724
2343,1160.72,0.724
2344,1161.06,0.724
2345,1161.40,0.724
2346,1161.73,0.723
2347,1162.05,0.723
2348,1162.39,0.723
2349,1162.73,0.723
2350,1163.06,0.723
2351,1163.39,0.723
2352,1163.71,0.723
2353,1164.05,0.722
2354,1164.39,0.722
2355,1164.73,0.722
2356,1165.05,0.722
2357,1165.38,0.722
2358,1165.72,0.722
2359,1166.06,0.721
2360,1166.39,0.721
2361,1166.72,0.721
2362,1167.04,0.721
2363,1167.38,0.721
2364,1167.72,0.721
2365,1168.06,0.721
2366,1168.38,0.720
2367,1168.71,0.720
2368,1169.06,0.720
2369,1169.40,0.720
2374,777.16,0.950
2375,777.32,0.950
2376,777.49,0.950
2377,777.66,0.950
2378,777.82,0.950
2379,777.99,0.950
2380,778.16,0.950
2381,778.33,0.950
2382,778.49,0.950
2383,778.65,0.950
2384,778.83,0.950
2385,778.99,0.950
2386,779.15,0.950
2387,779.32,0.950
2388,779.49,0.950
2389,779.66,0.950
2390,779.83,0.950
2391,779.99,0.950
2392,780.16,0.950
2393,780.32,0.950
2394,780.49,0.950
2395,780.65,0.950
2396,780.82,0.950
2397,780.99,0.950
2398,781.16,0.950
2399,781.32,0.950
2400,781.49,0.950
2401,781.65,0.950
2402,781.83,0.950
2403,781.99,0.950
2404,782.15,0.950
2405,782.32,0.950
2406,782.49,0.950
2407,782.66,0.950
2408,782.82,0.950
2409,782.99,0.950
2410,783.16,0.940
2411,783.33,0.940
2412,783.49,0.940
2413,783.66,0.940
2414,783.82,0.940
2415,783.99,0.940
2416,784.16,0.940
2417,784.32,0.940
2418,784.50,0.940
2419,784.66,0.940
2420,784.83,0.940
2421,784.99,0.940
2422,785.16,0.940
2423,785.32,0.940
2424,785.49,0.940
2425,785.66,0.940
2426,785.82,0.940
2427,785.99,0.940
2428,786.16,0.940
2429,786.32,0.940
2430,786.49,0.940
2431,786.66,0.940
2432,786.83,0.940
2433,786.99,0.940
2434,787.16,0.940
2435,787.33,0.940
2436,787.49,0.940
2437,787.65,0.940
2438,787.82,0.940
2439,787.99,0.940
2440,788.16,0.940
2441,788.33,0.940
2442,788.49,0.940
2443,788.66,0.940
2444,788.82,0.940
2445,788.99,0.940
2446,789.16,0.940
2447,789.32,0.940
2448,789.49,0.940
2449,789.66,0.940
2450,789.82,0.940
2451,789.99,0.940
2452,790.16,0.940
2453,790.32,0.940
2454,790.49,0.930
2455,790.66,0.930
2456,790.83,0.930
2457,790.99,0.930
2458,791.16,0.930
2459,791.33,0.930
2460,791.49,0.930
2461,791.65,0.930
2462,791.82,0.930
2463,791.99,0.930
2464,792.16,0.930
2465,792.32,0.930
2466,792.49,0.930
2467,792.65,0.930
2468,792.82,0.930
2469,792.99,0.930
2470,793.16,0.930
2471,793.33,0.930
2472,793.50,0.930
2473,793.66,0.930
2474,793.82,0.930
2475,793.99,0.930
2476,794.16,0.930
2477,794.33,0.930
2478,794.49,0.930
2479,794.65,0.930
2480,794.83,0.930
2481,794.99,0.930
2482,795.16,0.930
2483,795.33,0.930
2484,795.49,0.930
2485,795.65,0.930
2486,795.82,0.930
2487,796.00,0.930
2488,796.16,0.930
2489,796.32,0.930
2490,796.49,0.930
2491,796.66,0.930
2492,796.83,0.930
2493,796.99,0.930
2494,797.16,0.930
2495,797.33,0.930
2496,797.49,0.930
2497,797.65,0.930
2498,797.83,0.930
2499,797.99,0.930
2500,798.16,0.930
2501,798.32,0.920
2502,798.50,0.920
2503,798.66,0.920
2504,798.82,0.920
2505,798.99,0.920
2506,799.16,0.920
2507,799.32,0.920
2508,799.49,0.920
2509,799.66,0.920
2510,799.83,0.920
2511,799.99,0.920
2512,800.15,0.920
2513,800.32,0.920
2514,800.49,0.920
2515,800.66,0.920
2516,800.83,0.920
2517,801.00,0.920
2518,801.16,0.920
2519,801.32,0.920
2520,801.49,0.920
2521,801.66,0.920
2522,801.82,0.920
2523,801.99,0.920
2524,802.16,0.920
2525,802.33,0.920
2526,802.49,0.920
2527,802.66,0.920
2528,802.83,0.920
2529,802.99,0.920
2530,803.15,0.920
2531,803.32,0.920
2532,803.50,0.920
2533,803.66,0.920
2534,803.82,0.920
2535,803.99,0.920
2536,804.16,0.920
2537,804.32,0.920
2538,804.49,0.920
2539,804.66,0.920
2540,804.83,0.920
2541,805.00,0.920
2542,805.16,0.920
2543,805.33,0.920
2544,805.49,0.920
2545,805.65,0.920
2546,805.82,0.920
2547,805.99,0.920
2548,806.16,0.920
2549,806.33,0.920
2550,806.49,0.920
2551,806.66,0.910
2552,806.82,0.910
2553,806.99,0.910
2554,807.16,0.910
2555,807.33,0.910
2556,807.49,0.910
2557,807.66,0.910
2558,807.83,0.910
2559,808.00,0.910
2560,808.15,0.910
2561,808.32,0.910
2562,808.49,0.910
2563,808.67,0.910
2564,808.83,0.910
2565,808.99,0.910
2566,809.15,0.910
2567,809.32,0.910
2568,809.49,0.910
2569,809.66,0.910
2570,809.83,0.910
2571,809.99,0.910
2572,810.16,0.910
2573,810.33,0.910
2574,810.50,0.910
2575,810.66,0.910
2576,810.82,0.910
2577,810.99,0.910
2578,811.16,0.910
2579,811.32,0.910
2580,811.49,0.910
2581,811.66,0.910
2582,811.82,0.910
2583,811.99,0.910
2584,812.16,0.910
2585,812.33,0.910
2586,812.49,0.910
2587,812.65,0.910
2588,812.82,0.910
2589,812.99,0.910
2590,813.16,0.910
2591,813.33,0.910
2592,813.50,0.910
2593,813.66,0.910
2594,813.83,0.910
2595,813.99,0.910
2596,814.15,0.910
2597,814.33,0.910
2598,814.49,0.910
2599,814.66,0.910
2600,814.83,0.910
2601,815.00,0.910
2602,815.16,0.910
2603,815.33,0.910
2604,815.49,0.900
2605,815.66,0.900
2606,815.83,0.900
2607,815.99,0.900
2608,816.16,0.900
2609,816.33,0.900
2610,816.49,0.900
2611,816.66,0.900
2612,816.83,0.900
2613,817.00,0.900
2614,817.16,0.900
2615,817.33,0.900
2616,817.49,0.900
2617,817.66,0.900
2618,817.82,0.900
2619,818.00,0.900
2620,818.16,0.900
2621,818.32,0.900
2622,818.49,0.900
2623,818.66,0.900
2624,818.82,0.900
2625,818.99,0.900
2626,819.17,0.900
2627,819.33,0.900
2628,819.49,0.900
2629,819.66,0.900
2630,819.83,0.900
2631,819.99,0.900
2632,820.16,0.900
2633,820.33,0.900
2634,820.50,0.900
2635,820.66,0.900
2636,820.83,0.900
2637,820.99,0.900
2638,821.16,0.900
2639,821.33,0.900
2640,821.49,0.900
2641,821.65,0.900
2642,821.83,0.900
2643,822.00,0.900
2644,822.16,0.900
2645,822.32,0.900
2646,822.49,0.900
2647,822.66,0.900
2648,822.83,0.900
2649,822.99,0.900
2650,823.16,0.900
2651,823.33,0.900
2652,823.49,0.900
2653,823.66,0.900
2654,823.83,0.900
2655,824.00,0.900
2656,824.16,0.900
2657,824.33,0.900
2658,824.49,0.900
2659,824.66,0.890
2660,824.83,0.890
2661,824.99,0.890
2662,825.16,0.890
2663,825.32,0.890
2664,825.49,0.890
2665,825.66,0.890
2666,825.83,0.890
2667,825.99,0.890
2668,826.16,0.890
2669,826.33,0.890
2670,826.49,0.890
2671,826.66,0.890
2672,826.83,0.890
2673,827.00,0.890
2674,827.16,0.890
2675,827.33,0.890
2676,827.50,0.890
2677,827.66,0.890
2678,827.83,0.890
2679,827.99,0.890
2680,828.16,0.890
2681,828.33,0.890
2682,828.49,0.890
2683,828.66,0.890
2684,828.83,0.890
2685,829.00,0.890
2686,829.16,0.890
2687,829.33,0.890
2688,829.49,0.890
2689,829.66,0.890
2690,829.83,0.890
2691,830.00,0.890
2692,830.16,0.890
2693,830.33,0.890
2694,830.49,0.890
2695,830.66,0.890
2696,830.83,0.890
2697,830.99,0.890
2698,831.16,0.890
2699,831.33,0.890
2700,831.49,0.890
2701,831.66,0.890
2702,831.83,0.890
2703,831.99,0.890
2704,832.16,0.890
2705,832.33,0.890
2706,832.50,0.890
2707,832.66,0.890
2708,832.83,0.890
2709,832.99,0.890
2710,833.16,0.890
2711,833.32,0.890
2712,833.49,0.890
2713,833.66,0.890
2714,833.83,0.890
2715,833.99,0.890
2716,834.16,0.890
2717,834.33,0.880
2718,834.49,0.880
2719,834.66,0.880
2720,834.83,0.880
2721,834.99,0.880
2722,835.16,0.880
2723,835.33,0.880
2724,835.49,0.880
2725,835.66,0.880
2726,835.83,0.880
2727,836.00,0.880
2728,836.16,0.880
2729,836.33,0.880
2730,836.49,0.880
2731,836.66,0.880
2732,836.82,0.880
2733,836.99,0.880
2734,837.16,0.880
2735,837.32,0.880
2736,837.49,0.880
2737,837.66,0.880
2738,837.83,0.880
2739,838.00,0.880
2740,838.16,0.880
2741,838.33,0.880
2742,838.50,0.880
2743,838.66,0.880
2744,838.82,0.880
2745,838.99,0.880
2746,839.16,0.880
2747,839.33,0.880
2748,839.49,0.880
2749,839.66,0.880
2750,839.83,0.880
2751,840.00,0.880
2752,840.16,0.880
2753,840.33,0.880
2754,840.50,0.880
2755,840.66,0.880
2756,840.82,0.880
2757,840.99,0.880
2758,841.16,0.880
2759,841.33,0.880
2760,841.49,0.880
2761,841.66,0.880
2762,841.83,0.880
2763,841.99,0.880
2764,842.17,0.880
2765,842.33,0.880
2766,842.49,0.880
2767,842.66,0.880
2768,842.83,0.880
2769,842.99,0.880
2770,843.16,0.880
2771,843.33,0.880
2772,843.50,0.880
2773,843.66,0.880
2774,843.82,0.880
2775,843.99,0.880
2776,844.16,0.880
2777,844.33,0.870
2778,844.50,0.870
2779,844.66,0.870
2780,844.83,0.870
2781,844.99,0.870
2782,845.16,0.870
2783,845.33,0.870
2784,845.49,0.870
2785,845.67,0.870
2786,845.83,0.870
2787,845.99,0.870
2788,846.16,0.870
2789,846.33,0.870
2790,846.49,0.870
2791,846.66,0.870
2792,846.83,0.870
2793,847.00,0.870
2794,847.16,0.870
2795,847.32,0.870
2796,847.49,0.870
2797,847.67,0.870
2798,847.83,0.870
2799,847.99,0.870
2800,848.16,0.870
2801,848.33,0.870
2802,848.50,0.870
2803,848.66,0.870
2804,848.83,0.870
2805,848.99,0.870
2806,849.16,0.870
2807,849.33,0.870
2808,849.49,0.870
2809,849.66,0.870
2810,849.83,0.870
2811,849.99,0.870
2812,850.16,0.870
2813,850.32,0.870
2814,850.50,0.870
2815,850.66,0.870
2816,850.83,0.870
2817,850.99,0.870
2818,851.16,0.870
2819,851.33,0.870
2820,851.49,0.870
2821,851.66,0.870
2822,851.83,0.870
2823,852.00,0.870
2824,852.16,0.870
2825,852.33,0.870
2826,852.49,0.870
2827,852.66,0.870
2828,852.83,0.870
2829,853.00,0.870
2830,853.16,0.870
2831,853.33,0.870
2832,853.50,0.870
2833,853.67,0.870
2834,853.83,0.870
2835,854.00,0.870
2836,854.16,0.870
2837,854.33,0.870
2838,854.50,0.870
2839,854.66,0.870
2840,854.83,0.860
2841,855.00,0.860
2842,855.17,0.860
2843,855.33,0.860
2844,855.49,0.860
2845,855.66,0.860
2846,855.83,0.860
2847,855.99,0.860
2848,856.16,0.860
2849,856.33,0.860
2850,856.50,0.860
2851,856.67,0.860
2852,856.83,0.860
2853,857.00,0.860
2854,857.16,0.860
2855,857.33,0.860
2856,857.50,0.860
2857,857.66,0.860
2858,857.83,0.860
2859,858.00,0.860
2860,858.17,0.860
2861,858.33,0.860
2862,858.49,0.860
2863,858.66,0.860
2864,858.83,0.860
2865,859.00,0.860
2866,859.16,0.860
2867,859.33,0.860
2868,859.49,0.860
2869,859.66,0.860
2870,859.83,0.860
2871,859.99,0.860
2872,860.16,0.860
2873,860.33,0.860
2874,860.50,0.860
2875,860.66,0.860
2876,860.83,0.860
2877,861.00,0.860
2878,861.16,0.860
2879,861.33,0.860
2880,861.50,0.860
2881,861.67,0.860
2882,861.83,0.860
2883,861.99,0.860
2884,862.16,0.860
2885,862.33,0.860
2886,862.49,0.860
2887,862.66,0.860
2888,862.83,0.860
2889,863.00,0.860
2890,863.16,0.860
2891,863.33,0.860
2892,863.50,0.860
2893,863.66,0.860
2894,863.83,0.860
2895,864.00,0.860
2896,864.17,0.860
2897,864.33,0.860
2898,864.50,0.860
2899,864.67,0.860
2900,864.83,0.860
2901,865.00,0.860
2902,865.16,0.860
2903,865.33,0.860
2904,865.50,0.860
2905,865.67,0.850
2906,865.83,0.850
2907,865.99,0.850
2908,866.16,0.850
2909,866.33,0.850
2910,866.49,0.850
2911,866.66,0.850
2912,866.83,0.850
2913,866.99,0.850
2914,867.16,0.850
2915,867.33,0.850
2916,867.49,0.850
2917,867.66,0.850
2918,867.83,0.850
2919,867.99,0.850
2920,868.16,0.850
2921,868.34,0.850
2922,868.49,0.850
2923,868.66,0.850
2924,868.82,0.850
2925,869.00,0.850
2926,869.17,0.850
2927,869.33,0.850
2928,869.50,0.850
2929,869.66,0.850
2930,869.83,0.850
2931,870.00,0.850
2932,870.16,0.850
2933,870.33,0.850
2934,870.49,0.850
2935,870.66,0.850
2936,870.83,0.850
2937,871.00,0.850
2938,871.16,0.850
2939,871.33,0.850
2940,871.50,0.850
2941,871.67,0.850
2942,871.83,0.850
2943,872.00,0.850
2944,872.16,0.850
2945,872.32,0.850
2946,872.49,0.850
2947,872.67,0.850
2948,872.84,0.850
2949,873.00,0.850
2950,873.17,0.850
2951,873.33,0.850
2952,873.49,0.850
2953,873.67,0.850
2954,873.83,0.850
2955,873.99,0.850
2956,874.16,0.850
2957,874.33,0.850
2958,874.49,0.850
2959,874.66,0.850
2960,874.83,0.850
2961,875.00,0.850
2962,875.16,0.850
2963,875.33,0.850
2964,875.50,0.850
2965,875.67,0.850
2966,875.83,0.850
2967,876.00,0.850
2968,876.17,0.850
2969,876.33,0.850
2970,876.50,0.850
2971,876.66,0.850
2972,876.83,0.840
2973,877.00,0.840
2974,877.16,0.840
2975,877.33,0.840
2976,877.50,0.840
2977,877.66,0.840
2978,877.83,0.840
2979,878.00,0.840
2980,878.16,0.840
2981,878.33,0.840
2982,878.50,0.840
2983,878.66,0.840
2984,878.83,0.840
2985,879.00,0.840
2986,879.17,0.840
2987,879.33,0.840
2988,879.50,0.840
2989,879.67,0.840
2990,879.84,0.840
2991,880.00,0.840
2992,880.17,0.840
2993,880.33,0.840
2994,880.49,0.840
2995,880.67,0.840
2996,880.83,0.840
2997,880.99,0.840
2998,881.16,0.840
2999,881.34,0.840
3000,881.50,0.840
3001,881.66,0.840
3002,881.83,0.840
3003,882.00,0.840
3004,882.17,0.840
3005,882.33,0.840
3006,882.50,0.840
3007,882.67,0.840
3008,882.83,0.840
3009,883.00,0.840
3010,883.16,0.840
3011,883.33,0.840
3012,883.49,0.840
3013,883.67,0.840
3014,883.83,0.840
3015,884.00,0.840
3016,884.16,0.840
3017,884.33,0.840
3018,884.50,0.840
3019,884.66,0.840
3020,884.83,0.840
3021,885.00,0.840
3022,885.17,0.840
3023,885.33,0.840
3024,885.50,0.840
3025,885.67,0.840
3026,885.83,0.840
3027,886.00,0.840
3028,886.17,0.840
3029,886.33,0.840
3030,886.50,0.840
3031,886.67,0.840
3032,886.83,0.840
3033,887.00,0.840
3034,887.16,0.840
3035,887.34,0.840
3036,887.50,0.840
3037,887.66,0.840
3038,887.83,0.840
3039,888.00,0.840
3040,888.17,0.840
3041,888.33,0.830
3042,888.50,0.830
3043,888.67,0.830
3044,888.83,0.830
3045,889.00,0.830
3046,889.17,0.830
3047,889.33,0.830
3048,889.50,0.830
3049,889.67,0.830
3050,889.83,0.830
3051,890.00,0.830
3052,890.16,0.830
3053,890.33,0.830
3054,890.50,0.830
3055,890.67,0.830
3056,890.83,0.830
3057,891.00,0.830
3058,891.17,0.830
3059,891.33,0.830
3060,891.50,0.830
3061,891.67,0.830
3062,891.83,0.830
3063,892.00,0.830
3064,892.17,0.830
3065,892.34,0.830
3066,892.50,0.830
3067,892.67,0.830
3068,892.83,0.830
3069,893.00,0.830
3070,893.16,0.830
3071,893.33,0.830
3072,893.50,0.830
3073,893.67,0.830
3074,893.83,0.830
3075,894.00,0.830
3076,894.17,0.830
3077,894.34,0.830
3078,894.50,0.830
3079,894.66,0.830
3080,894.83,0.830
3081,895.00,0.830
3082,895.17,0.830
3083,895.33,0.830
3084,895.50,0.830
3085,895.67,0.830
3086,895.83,0.830
3087,896.00,0.830
3088,896.16,0.830
3089,896.33,0.830
3090,896.50,0.830
3091,896.67,0.830
3092,896.83,0.830
3093,896.99,0.830
3094,897.17,0.830
3095,897.34,0.830
3096,897.50,0.830
3097,897.66,0.830
3098,897.83,0.830
3099,898.00,0.830
3100,898.17,0.830
3101,898.33,0.830
3102,898.50,0.830
3103,898.67,0.830
3104,898.83,0.830
3105,899.00,0.830
3106,899.16,0.830
3107,899.33,0.830
3108,899.50,0.830
3109,899.66,0.830
3110,899.83,0.830
3111,900.00,0.830
3112,900.17,0.830
3113,900.33,0.820
3114,900.50,0.820
3115,900.67,0.820
3116,900.83,0.820
3117,901.00,0.820
3118,901.17,0.820
3119,901.33,0.820
3120,901.50,0.820
3121,901.67,0.820
3122,901.83,0.820
3123,902.00,0.820
3124,902.17,0.820
3125,902.34,0.820
3126,902.50,0.820
3127,902.67,0.820
3128,902.83,0.820
3129,903.00,0.820
3130,903.16,0.820
3131,903.33,0.820
3132,903.50,0.820
3133,903.66,0.820
3134,903.84,0.820
3135,904.00,0.820
3136,904.16,0.820
3137,904.33,0.820
3138,904.51,0.820
3139,904.66,0.820
3140,904.83,0.820
3141,905.00,0.820
3142,905.17,0.820
3143,905.33,0.820
3144,905.50,0.820
3145,905.67,0.820
3146,905.84,0.820
3147,906.00,0.820
3148,906.17,0.820
3149,906.34,0.820
3150,906.50,0.820
3151,906.66,0.820
3152,906.83,0.820
3153,907.00,0.820
3154,907.17,0.820
3155,907.33,0.820
3156,907.50,0.820
3157,907.67,0.820
3158,907.83,0.820
3159,908.00,0.820
3160,908.17,0.820
3161,908.34,0.820
3162,908.50,0.820
3163,908.66,0.820
3164,908.83,0.820
3165,909.00,0.820
3166,909.17,0.820
3167,909.34,0.820
3168,909.50,0.820
3169,909.66,0.820
3170,909.83,0.820
3171,910.00,0.820
3172,910.16,0.820
3173,910.33,0.820
3174,910.50,0.820
3175,910.67,0.820
3176,910.83,0.820
3177,911.00,0.820
3178,911.17,0.820
3179,911.33,0.820
3180,911.50,0.820
3181,911.67,0.820
3182,911.83,0.820
3183,912.00,0.820
3184,912.17,0.820
3185,912.34,0.820
3186,912.50,0.820
3187,912.67,0.820
3188,912.83,0.810
3189,913.00,0.810
3190,913.17,0.810
3191,913.33,0.810
3192,913.50,0.810
3193,913.67,0.810
3194,913.84,0.810
3195,914.00,0.810
3196,914.16,0.810
3197,914.34,0.810
3198,914.50,0.810
3199,914.67,0.810
3200,914.83,0.810
3201,915.00,0.810
3202,915.17,0.810
3203,915.34,0.810
3204,915.50,0.810
3205,915.67,0.810
3206,915.83,0.810
3207,916.00,0.810
3208,916.17,0.810
3209,916.34,0.810
3210,916.50,0.810
3211,916.67,0.810
3212,916.84,0.810
3213,917.00,0.810
3214,917.17,0.810
3215,917.34,0.810
3216,917.50,0.810
3217,917.67,0.810
3218,917.84,0.810
3219,918.00,0.810
3220,918.17,0.810
3221,918.33,0.810
3222,918.50,0.810
3223,918.66,0.810
3224,918.83,0.810
3225,919.00,0.810
3226,919.17,0.810
3227,919.34,0.810
3228,919.50,0.810
3229,919.67,0.810
3230,919.84,0.810
3231,920.00,0.810
3232,920.17,0.810
3233,920.33,0.810
3234,920.51,0.810
3235,920.67,0.810
3236,920.83,0.810
3237,921.01,0.810
3238,921.17,0.810
3239,921.34,0.810
3240,921.50,0.810
3241,921.67,0.810
3242,921.83,0.810
3243,922.00,0.810
3244,922.17,0.810
3245,922.33,0.810
3246,922.50,0.810
3247,922.66,0.810
3248,922.83,0.810
3249,923.00,0.810
3250,923.17,0.810
3251,923.33,0.810
3252,923.50,0.810
3253,923.67,0.810
3254,923.83,0.810
3255,924.00,0.810
3256,924.17,0.810
3257,924.34,0.810
3258,924.50,0.810
3259,924.67,0.810
3260,924.83,0.810
3261,925.00,0.810
3262,925.17,0.810
3263,925.33,0.810
3264,925.50,0.810
3265,925.67,0.810
3266,925.84,0.810
3267,926.00,0.810
3268,926.17,0.800
3269,926.33,0.800
3270,926.50,0.800
3271,926.67,0.800
3272,926.83,0.800
3273,927.00,0.800
3274,927.17,0.800
3275,927.33,0.800
3276,927.50,0.800
3277,927.66,0.800
3278,927.83,0.800
3279,928.00,0.800
3280,928.17,0.800
3281,928.33,0.800
3282,928.50,0.800
3283,928.67,0.800
3284,928.83,0.800
3285,929.00,0.800
3286,929.17,0.800
3287,929.34,0.800
3288,929.50,0.800
3289,929.67,0.800
3290,929.84,0.800
3291,930.01,0.800
3292,930.17,0.800
3293,930.34,0.800
3294,930.51,0.800
3295,930.67,0.800
3296,930.83,0.800
3297,931.00,0.800
3298,931.17,0.800
3299,931.34,0.800
3300,931.50,0.800
3301,931.67,0.800
3302,931.84,0.800
3303,932.00,0.800
3304,932.17,0.800
3305,932.33,0.800
3306,932.50,0.800
3307,932.67,0.800
3308,932.83,0.800
3309,933.00,0.800
3310,933.17,0.800
3311,933.34,0.800
3312,933.50,0.800
3313,933.67,0.800
3314,933.83,0.800
3315,934.00,0.800
3316,934.17,0.800
3317,934.33,0.800
3318,934.51,0.800
3319,934.67,0.800
3320,934.83,0.800
3321,935.00,0.800
3322,935.17,0.800
3323,935.33,0.800
3324,935.50,0.800
3325,935.67,0.800
3326,935.84,0.800
3327,936.01,0.800
3328,936.17,0.800
3329,936.33,0.800
3330,936.50,0.800
3331,936.67,0.800
3332,936.84,0.800
3333,937.00,0.800
3334,937.17,0.800
3335,937.33,0.800
3336,937.50,0.800
3337,937.67,0.800
3338,937.83,0.800
3339,938.01,0.800
3340,938.17,0.800
3341,938.33,0.800
3342,938.51,0.800
3343,938.67,0.800
3344,938.83,0.800
3345,939.00,0.800
3346,939.17,0.800
3347,939.34,0.800
3348,939.51,0.800
3349,939.67,0.800
3350,939.83,0.800
3351,940.00,0.800
3352,940.16,0.800
3353,940.33,0.800
3354,940.50,0.800
3355,940.66,0.790
3356,940.84,0.790
3357,941.00,0.790
3358,941.17,0.790
3359,941.33,0.790
3360,941.50,0.790
3361,941.67,0.790
3362,941.83,0.790
3363,942.00,0.790
3364,942.18,0.790
3365,942.33,0.790
3366,942.50,0.790
3367,942.67,0.790
3368,942.83,0.790
3369,943.00,0.790
3370,943.17,0.790
3371,943.33,0.790
3372,943.50,0.790
3373,943.67,0.790
3374,943.83,0.790
3375,944.00,0.790
3376,944.17,0.790
3377,944.34,0.790
3378,944.51,0.790
3379,944.67,0.790
3380,944.84,0.790
3381,945.00,0.790
3382,945.17,0.790
3383,945.34,0.790
3384,945.51,0.790
3385,945.67,0.790
3386,945.84,0.790
3387,945.99,0.790
3388,946.17,0.790
3389,946.33,0.790
3390,946.50,0.790
3391,946.67,0.790
3392,946.84,0.790
3393,947.00,0.790
3394,947.17,0.790
3395,947.34,0.790
3396,947.50,0.790
3397,947.67,0.790
3398,947.84,0.790
3399,948.01,0.790
3400,948.17,0.790
3401,948.34,0.790
3402,948.51,0.790
3403,948.67,0.790
3404,948.83,0.790
3405,949.00,0.790
3406,949.17,0.790
3407,949.34,0.790
3408,949.50,0.790
3409,949.67,0.790
3410,949.84,0.790
3411,950.00,0.790
3412,950.17,0.790
3413,950.33,0.790
3414,950.51,0.790
3415,950.67,0.790
3416,950.84,0.790
3417,951.01,0.790
3418,951.17,0.790
3419,951.34,0.790
3420,951.50,0.790
3421,951.67,0.790
3422,951.83,0.790
3423,952.00,0.790
3424,952.17,0.790
3425,952.33,0.790
3426,952.50,0.790
3427,952.67,0.790
3428,952.83,0.790
3429,953.00,0.790
3430,953.17,0.790
3431,953.33,0.790
3432,953.50,0.790
3433,953.67,0.790
3434,953.84,0.790
3435,954.01,0.790
3436,954.17,0.790
3437,954.34,0.790
3438,954.50,0.790
3439,954.66,0.790
3440,954.83,0.790
3441,955.01,0.790
3442,955.17,0.790
3443,955.33,0.790
3444,955.50,0.790
3445,955.68,0.790
3446,955.84,0.790
3447,956.00,0.790
3448,956.17,0.790
3449,956.34,0.790
3450,956.50,0.790
3451,956.67,0.780
3452,956.84,0.780
3453,957.01,0.780
3454,957.17,0.780
3455,957.34,0.780
3456,957.51,0.780
3457,957.67,0.780
3458,957.83,0.780
3459,958.00,0.780
3460,958.17,0.780
3461,958.33,0.780
3462,958.50,0.780
3463,958.67,0.780
3464,958.83,0.780
3465,959.00,0.780
3466,959.17,0.780
3467,959.33,0.780
3468,959.50,0.780
3469,959.68,0.780
3470,959.84,0.780
3471,960.00,0.780
3472,960.16,0.780
3473,960.33,0.780
3474,960.51,0.780
3475,960.67,0.780
3476,960.83,0.780
3477,961.01,0.780
3478,961.17,0.780
3479,961.33,0.780
3480,961.50,0.780
3481,961.67,0.780
3482,961.83,0.780
3483,962.00,0.780
3484,962.17,0.780
3485,962.34,0.780
3486,962.50,0.780
3487,962.67,0.780
3488,962.83,0.780
3489,963.00,0.780
3490,963.17,0.780
3491,963.34,0.780
3492,963.51,0.780
3493,963.67,0.780
3494,963.83,0.780
3495,964.01,0.780
3496,964.17,0.780
3497,964.34,0.780
3498,964.50,0.780
3499,964.67,0.780
3500,964.84,0.780
3501,965.01,0.780
3502,965.17,0.780
3503,965.33,0.780
3504,965.50,0.780
3505,965.67,0.780
3506,965.83,0.780
3507,966.00,0.780
3508,966.17,0.780
3509,966.33,0.780
3510,966.50,0.780
3511,966.67,0.780
3512,966.84,0.780
3513,967.01,0.780
3514,967.17,0.780
3515,967.34,0.780
3516,967.51,0.780
3517,967.67,0.780
3518,967.83,0.780
3519,968.00,0.780
3520,968.17,0.780
3521,968.34,0.780
3522,968.51,0.780
3523,968.67,0.780
3524,968.84,0.780
3525,969.00,0.780
3526,969.17,0.780
3527,969.34,0.780
3528,969.50,0.780
3529,969.67,0.780
3530,969.84,0.780
3531,970.00,0.780
3532,970.17,0.780
3533,970.34,0.780
3534,970.50,0.780
3535,970.68,0.780
3536,970.84,0.780
3537,971.00,0.780
3538,971.17,0.780
3539,971.33,0.780
3540,971.50,0.780
3541,971.67,0.780
3542,971.84,0.780
3543,972.00,0.780
3544,972.17,0.780
3545,972.34,0.780
3546,972.51,0.780
3547,972.67,0.780
3548,972.84,0.780
3549,973.01,0.780
3550,973.17,0.780
3551,973.34,0.780
3552,973.50,0.780
3553,973.67,0.780
3554,973.84,0.780
3555,974.01,0.780
3556,974.17,0.780
3557,974.33,0.770
3558,974.50,0.770
3559,974.67,0.770
3560,974.84,0.770
3561,975.00,0.770
3562,975.17,0.770
3563,975.34,0.770
3564,975.50,0.770
3565,975.67,0.770
3566,975.84,0.770
3567,976.00,0.770
3568,976.17,0.770
3569,976.33,0.770
3570,976.50,0.770
3571,976.67,0.770
3572,976.84,0.770
3573,977.00,0.770
3574,977.17,0.770
3575,977.34,0.770
3576,977.50,0.770
3577,977.67,0.770
3578,977.84,0.770
3579,978.00,0.770
3580,978.17,0.770
3581,978.34,0.770
3582,978.50,0.770
3583,978.67,0.770
3584,978.84,0.770
3585,979.00,0.770
3586,979.17,0.770
3587,979.34,0.770
3588,979.50,0.770
3589,979.67,0.770
3590,979.83,0.770
3591,980.00,0.770
3592,980.17,0.770
3593,980.34,0.770
3594,980.50,0.770
3595,980.67,0.770
3596,980.84,0.770
3597,981.00,0.770
3598,981.17,0.770
3599,981.34,0.770
3600,981.51,0.770
3601,981.67,0.770
3602,981.84,0.770
3603,982.01,0.770
3604,982.17,0.770
3605,982.34,0.770
3606,982.50,0.770
3607,982.66,0.770
3608,982.84,0.770
3609,983.01,0.770
3610,983.17,0.770
3611,983.33,0.770
3612,983.50,0.770
3613,983.67,0.770
3614,983.84,0.770
3615,984.00,0.770
3616,984.17,0.770
3617,984.34,0.770
3618,984.51,0.770
3619,984.67,0.770
3620,984.83,0.770
3621,985.00,0.770
3622,985.17,0.770
3623,985.33,0.770
3624,985.50,0.770
3625,985.67,0.770
3626,985.84,0.770
3627,986.00,0.770
3628,986.17,0.770
3629,986.34,0.770
3630,986.50,0.770
3631,986.67,0.770
3632,986.84,0.770
3633,987.00,0.770
3634,987.17,0.770
3635,987.34,0.770
3636,987.50,0.770
3637,987.67,0.770
3638,987.83,0.770
3639,988.00,0.770
3640,988.17,0.770
3641,988.33,0.770
3642,988.51,0.770
3643,988.67,0.770
3644,988.83,0.770
3645,989.00,0.770
3646,989.17,0.770
3647,989.34,0.770
3648,989.51,0.770
3649,989.67,0.770
3650,989.84,0.770
3651,990.01,0.770
3652,990.17,0.770
3653,990.33,0.770
3654,990.50,0.770
3655,990.67,0.770
3656,990.83,0.770
3657,991.00,0.770
3658,991.17,0.770
3659,991.34,0.770
3660,991.50,0.770
3661,991.67,0.770
3662,991.84,0.770
3663,992.00,0.770
3664,992.17,0.770
3665,992.33,0.770
3666,992.51,0.770
3667,992.67,0.770
3668,992.83,0.770
3669,993.00,0.770
3670,993.17,0.770
3671,993.34,0.770
3672,993.50,0.770
3673,993.67,0.770
3674,993.84,0.770
3675,994.00,0.770
3676,994.17,0.770
3677,994.34,0.760
3678,994.50,0.760
3679,994.67,0.760
3680,994.84,0.760
3681,995.01,0.760
3682,995.17,0.760
3683,995.33,0.760
3684,995.50,0.760
3685,995.67,0.760
3686,995.84,0.760
3687,996.00,0.760
3688,996.17,0.760
3689,996.34,0.760
3690,996.51,0.760
3691,996.66,0.760
3692,996.84,0.760
3693,997.01,0.760
3694,997.17,0.760
3695,997.33,0.760
3696,997.50,0.760
3697,997.67,0.760
3698,997.84,0.760
3699,998.01,0.760
3700,998.17,0.760
3701,998.33,0.760
3702,998.50,0.760
3703,998.67,0.760
3704,998.84,0.760
3705,999.00,0.760
3706,999.17,0.760
3707,999.34,0.760
3708,999.50,0.760
3709,999.68,0.760
3710,999.84,0.760
3711,1000.00,0.760
3712,1000.17,0.760
3713,1000.34,0.760
3714,1000.51,0.760
3715,1000.68,0.760
3716,1000.84,0.760
3717,1001.00,0.760
3718,1001.17,0.760
3719,1001.33,0.760
3720,1001.51,0.760
3721,1001.67,0.760
3722,1001.83,0.760
3723,1002.01,0.760
3724,1002.17,0.760
3725,1002.34,0.760
3726,1002.51,0.760
3727,1002.67,0.760
3728,1002.84,0.760
3729,1003.00,0.760
3730,1003.17,0.760
3731,1003.33,0.760
3732,1003.50,0.760
3733,1003.67,0.760
3734,1003.83,0.760
3735,1004.01,0.760
3736,1004.17,0.760
3737,1004.34,0.760
3738,1004.51,0.760
3739,1004.67,0.760
3740,1004.83,0.760
3741,1005.01,0.760
3742,1005.17,0.760
3743,1005.33,0.760
3744,1005.50,0.760
3745,1005.67,0.760
3746,1005.83,0.760
3747,1006.01,0.760
3748,1006.17,0.760
3749,1006.33,0.760
3750,1006.51,0.760
3751,1006.67,0.760
3752,1006.84,0.760
3753,1007.01,0.760
3754,1007.17,0.760
3755,1007.34,0.760
3756,1007.51,0.760
3757,1007.68,0.760
3758,1007.84,0.760
3759,1008.00,0.760
3760,1008.17,0.760
3761,1008.33,0.760
3762,1008.50,0.760
3763,1008.67,0.760
3764,1008.84,0.760
3765,1009.01,0.760
3766,1009.16,0.760
3767,1009.34,0.760
3768,1009.51,0.760
3769,1009.67,0.760
3770,1009.83,0.760
3771,1010.00,0.760
3772,1010.17,0.760
3773,1010.34,0.760
3774,1010.51,0.760
3775,1010.67,0.760
3776,1010.84,0.760
3777,1011.00,0.760
3778,1011.17,0.760
3779,1011.33,0.760
3780,1011.51,0.760
3781,1011.68,0.760
3782,1011.83,0.760
3783,1012.00,0.760
3784,1012.17,0.760
3785,1012.34,0.760
3786,1012.50,0.760
3787,1012.67,0.760
3788,1012.84,0.760
3789,1013.00,0.760
3790,1013.17,0.760
3791,1013.33,0.760
3792,1013.50,0.760
3793,1013.67,0.760
3794,1013.84,0.760
3795,1014.00,0.760
3796,1014.17,0.760
3797,1014.34,0.760
3798,1014.50,0.760
3799,1014.67,0.760
3800,1014.84,0.760
3801,1015.00,0.760
3802,1015.17,0.760
3803,1015.34,0.760
3804,1015.50,0.760
3805,1015.67,0.760
3806,1015.83,0.760
3807,1016.00,0.760
3808,1016.17,0.750
3809,1016.34,0.750
3810,1016.50,0.750
3811,1016.67,0.750
3812,1016.84,0.750
3813,1017.00,0.750
3814,1017.17,0.750
3815,1017.34,0.750
3816,1017.50,0.750
3817,1017.67,0.750
3818,1017.84,0.750
3819,1018.00,0.750
3820,1018.17,0.750
3821,1018.34,0.750
3822,1018.50,0.750
3823,1018.67,0.750
3824,1018.84,0.750
3825,1019.00,0.750
3826,1019.17,0.750
3827,1019.34,0.750
3828,1019.51,0.750
3829,1019.67,0.750
3830,1019.83,0.750
3831,1020.01,0.750
3832,1020.17,0.750
3833,1020.33,0.750
3834,1020.50,0.750
3835,1020.67,0.750
3836,1020.83,0.750
3837,1021.00,0.750
3838,1021.17,0.750
3839,1021.34,0.750
3840,1021.50,0.750
3841,1021.67,0.750
3842,1021.84,0.750
3843,1022.00,0.750
3844,1022.17,0.750
3845,1022.34,0.750
3846,1022.51,0.750
3847,1022.68,0.750
3848,1022.84,0.750
3849,1023.00,0.750
3850,1023.17,0.750
3851,1023.34,0.750
3852,1023.50,0.750
3853,1023.67,0.750
3854,1023.83,0.750
3855,1024.00,0.750
3856,1024.17,0.750
3857,1024.33,0.750
3858,1024.51,0.750
3859,1024.67,0.750
3860,1024.84,0.750
3861,1025.01,0.750
3862,1025.17,0.750
3863,1025.34,0.750
3864,1025.50,0.750
3865,1025.67,0.750
3866,1025.83,0.750
3867,1026.00,0.750
3868,1026.17,0.750
3869,1026.34,0.750
3870,1026.50,0.750
3871,1026.67,0.750
3872,1026.83,0.750
3873,1027.00,0.750
3874,1027.18,0.750
3875,1027.34,0.750
3876,1027.51,0.750
3877,1027.68,0.750
3878,1027.84,0.750
3879,1028.00,0.750
3880,1028.17,0.750
3881,1028.33,0.750
3882,1028.51,0.750
3883,1028.67,0.750
3884,1028.83,0.750
3885,1029.01,0.750
3886,1029.17,0.750
3887,1029.33,0.750
3888,1029.50,0.750
3889,1029.67,0.750
3890,1029.83,0.750
3891,1030.01,0.750
3892,1030.18,0.750
3893,1030.34,0.750
3894,1030.50,0.750
3895,1030.67,0.750
3896,1030.84,0.750
3897,1031.00,0.750
3898,1031.17,0.750
3899,1031.34,0.750
3900,1031.50,0.750
3901,1031.67,0.750
3902,1031.83,0.750
3903,1032.00,0.750
3904,1032.18,0.750
3905,1032.34,0.750
3906,1032.50,0.750
3907,1032.66,0.750
3908,1032.83,0.750
3909,1033.00,0.750
3910,1033.17,0.750
3911,1033.34,0.750
3912,1033.51,0.750
3913,1033.67,0.750
3914,1033.84,0.750
3915,1034.01,0.750
3916,1034.17,0.750
3917,1034.34,0.750
3918,1034.51,0.750
3919,1034.67,0.750
3920,1034.84,0.750
3921,1035.00,0.750
3922,1035.17,0.750
3923,1035.34,0.750
3924,1035.50,0.750
3925,1035.67,0.750
3926,1035.84,0.750
3927,1036.00,0.750
3928,1036.17,0.750
3929,1036.34,0.750
3930,1036.50,0.750
3931,1036.67,0.750
3932,1036.84,0.750
3933,1037.00,0.750
3934,1037.17,0.750
3935,1037.34,0.750
3936,1037.50,0.750
3937,1037.66,0.750
3938,1037.83,0.750
3939,1038.00,0.750
3940,1038.17,0.750
3941,1038.33,0.750
3942,1038.51,0.750
3943,1038.67,0.750
3944,1038.83,0.750
3945,1039.00,0.750
3946,1039.18,0.750
3947,1039.34,0.750
3948,1039.50,0.750
3949,1039.67,0.750
3950,1039.84,0.740
3951,1040.01,0.740
3952,1040.17,0.740
3953,1040.33,0.740
3954,1040.50,0.740
3955,1040.67,0.740
3956,1040.84,0.740
3957,1041.00,0.740
3958,1041.17,0.740
3959,1041.34,0.740
3960,1041.51,0.740
3961,1041.67,0.740
3962,1041.84,0.740
3963,1042.00,0.740
3964,1042.18,0.740
3965,1042.34,0.740
3966,1042.50,0.740
3967,1042.67,0.740
3968,1042.84,0.740
3969,1043.00,0.740
3970,1043.17,0.740
3971,1043.34,0.740
3972,1043.50,0.740
3973,1043.67,0.740
3974,1043.84,0.740
3975,1044.01,0.740
3976,1044.17,0.740
3977,1044.34,0.740
3978,1044.50,0.740
3979,1044.67,0.740
3980,1044.84,0.740
3981,1045.01,0.740
3982,1045.17,0.740
3983,1045.33,0.740
3984,1045.50,0.740
3985,1045.67,0.740
3986,1045.83,0.740
3987,1046.00,0.740
3988,1046.17,0.740
3989,1046.34,0.740
3990,1046.50,0.740
3991,1046.67,0.740
3992,1046.83,0.740
3993,1047.00,0.740
3994,1047.16,0.740
3995,1047.33,0.740
3996,1047.50,0.740
3997,1047.67,0.740
3998,1047.83,0.740
3999,1048.00,0.740
4000,1048.17,0.740
4001,1048.33,0.740
4002,1048.50,0.740
4003,1048.68,0.740
4004,1048.83,0.740
4005,1049.00,0.740
4006,1049.17,0.740
4007,1049.34,0.740
4008,1049.50,0.740
4009,1049.66,0.740
4010,1049.84,0.740
4011,1050.00,0.740
4012,1050.17,0.740
4013,1050.34,0.740
4014,1050.50,0.740
4015,1050.67,0.740
4016,1050.84,0.740
4017,1051.00,0.740
4018,1051.16,0.740
4019,1051.33,0.740
4020,1051.50,0.740
4021,1051.67,0.740
4022,1051.84,0.740
4023,1052.00,0.740
4024,1052.17,0.740
4025,1052.34,0.740
4026,1052.50,0.740
4027,1052.67,0.740
4028,1052.84,0.740
4029,1053.00,0.740
4030,1053.17,0.740
4031,1053.34,0.740
4032,1053.51,0.740
4033,1053.67,0.740
4034,1053.84,0.740
4035,1054.00,0.740
4036,1054.17,0.740
4037,1054.33,0.740
4038,1054.50,0.740
4039,1054.67,0.740
4040,1054.84,0.740
4041,1055.00,0.740
4042,1055.17,0.740
4043,1055.34,0.740
4044,1055.50,0.740
4045,1055.67,0.740
4046,1055.84,0.740
4047,1056.01,0.740
4048,1056.17,0.740
4049,1056.33,0.740
4050,1056.50,0.740
4051,1056.67,0.740
4052,1056.83,0.740
4053,1057.00,0.740
4054,1057.17,0.740
4055,1057.34,0.740
4056,1057.50,0.740
4057,1057.67,0.740
4058,1057.84,0.740
4059,1058.01,0.740
4060,1058.17,0.740
4061,1058.34,0.740
4062,1058.51,0.740
4063,1058.67,0.740
4064,1058.83,0.740
4065,1059.00,0.740
4066,1059.17,0.740
4067,1059.33,0.740
4068,1059.49,0.740
4069,1059.67,0.740
4070,1059.84,0.740
4071,1060.00,0.740
4072,1060.17,0.740
4073,1060.34,0.740
4074,1060.51,0.740
4075,1060.67,0.740
4076,1060.83,0.740
4077,1061.00,0.740
4078,1061.17,0.740
4079,1061.33,0.740
4080,1061.50,0.740
4081,1061.67,0.740
4082,1061.83,0.740
4083,1062.00,0.740
4084,1062.17,0.740
4085,1062.33,0.740
4086,1062.50,0.740
4087,1062.67,0.740
4088,1062.84,0.740
4089,1063.00,0.740
4090,1063.17,0.740
4091,1063.33,0.740
4092,1063.51,0.740
4093,1063.67,0.740
4094,1063.84,0.740
4095,1064.00,0.740
4096,1064.17,0.740
4097,1064.33,0.740
4098,1064.50,0.730
4099,1064.67,0.730
4100,1064.84,0.730
4101,1065.00,0.730
4102,1065.16,0.730
4103,1065.33,0.730
4104,1065.51,0.730
4105,1065.67,0.730
4106,1065.83,0.730
4107,1066.00,0.730
4108,1066.18,0.730
4109,1066.33,0.730
4110,1066.50,0.730
4111,1066.67,0.730
4112,1066.84,0.730
4113,1067.01,0.730
4114,1067.17,0.730
4115,1067.34,0.730
4116,1067.51,0.730
4117,1067.67,0.730
4118,1067.83,0.730
4119,1068.00,0.730
4120,1068.17,0.730
4121,1068.33,0.730
4122,1068.50,0.730
4123,1068.67,0.730
4124,1068.83,0.730
4125,1069.01,0.730
4126,1069.17,0.730
4127,1069.33,0.730
4128,1069.49,0.730
4129,1069.67,0.730
4130,1069.83,0.730
4131,1070.00,0.730
4132,1070.17,0.730
4133,1070.34,0.730
4134,1070.50,0.730
4135,1070.67,0.730
4136,1070.84,0.730
4137,1071.00,0.730
4138,1071.17,0.730
4139,1071.33,0.730
4140,1071.50,0.730
4141,1071.67,0.730
4142,1071.83,0.730
4143,1072.00,0.730
4144,1072.17,0.730
4145,1072.34,0.730
4146,1072.50,0.730
4147,1072.67,0.730
4148,1072.83,0.730
4149,1073.00,0.730
4150,1073.17,0.730
4151,1073.34,0.730
4152,1073.50,0.730
4153,1073.67,0.730
4154,1073.84,0.730
4155,1074.00,0.730
4156,1074.16,0.730
4157,1074.34,0.730
4158,1074.50,0.730
4159,1074.67,0.730
4160,1074.84,0.730
4161,1075.00,0.730
4162,1075.17,0.730
4163,1075.34,0.730
4164,1075.50,0.730
4165,1075.67,0.730
4166,1075.84,0.730
4167,1076.01,0.730
4168,1076.17,0.730
4169,1076.33,0.730
4170,1076.49,0.730
4171,1076.67,0.730
4172,1076.84,0.730
4173,1077.00,0.730
4174,1077.17,0.730
4175,1077.33,0.730
4176,1077.50,0.730
4177,1077.67,0.730
4178,1077.83,0.730
4179,1077.99,0.730
4180,1078.16,0.730
4181,1078.33,0.730
4182,1078.51,0.730
4183,1078.67,0.730
4184,1078.83,0.730
4185,1079.00,0.730
4186,1079.17,0.730
4187,1079.33,0.730
4188,1079.50,0.730
4189,1079.67,0.730
4190,1079.84,0.730
4191,1080.00,0.730
4192,1080.16,0.730
4193,1080.33,0.730
4194,1080.50,0.730
4195,1080.67,0.730
4196,1080.83,0.730
4197,1080.99,0.730
4198,1081.17,0.730
4199,1081.34,0.730
4200,1081.50,0.730
4201,1081.66,0.730
4202,1081.83,0.730
4203,1082.01,0.730
4204,1082.18,0.730
4205,1082.33,0.730
4206,1082.50,0.730
4207,1082.66,0.730
4208,1082.84,0.730
4209,1083.01,0.730
4210,1083.16,0.730
4211,1083.33,0.730
4212,1083.50,0.730
4213,1083.66,0.730
4214,1083.83,0.730
4215,1084.00,0.730
4216,1084.17,0.730
4217,1084.34,0.730
4218,1084.51,0.730
4219,1084.67,0.730
4220,1084.83,0.730
4221,1085.00,0.730
4222,1085.17,0.730
4223,1085.33,0.730
4224,1085.50,0.730
4225,1085.67,0.730
4226,1085.83,0.730
4227,1086.00,0.730
4228,1086.17,0.730
4229,1086.33,0.730
4230,1086.50,0.730
4231,1086.66,0.730
4232,1086.83,0.730
4233,1087.00,0.730
4234,1087.17,0.730
4235,1087.34,0.730
4236,1087.50,0.730
4237,1087.67,0.730
4238,1087.84,0.730
4239,1088.00,0.730
4240,1088.16,0.730
4241,1088.34,0.730
4242,1088.51,0.730
4243,1088.67,0.730
4244,1088.83,0.730
4245,1088.99,0.730
4246,1089.17,0.730
4247,1089.33,0.730
4248,1089.50,0.730
4249,1089.67,0.730
4250,1089.83,0.730
4251,1090.01,0.730
4252,1090.17,0.730
4253,1090.34,0.720
4254,1090.51,0.720
4255,1090.67,0.720
4256,1090.83,0.720
4257,1090.99,0.720
4258,1091.17,0.720
4259,1091.34,0.720
4260,1091.50,0.720
4261,1091.67,0.720
4262,1091.84,0.720
4263,1092.00,0.720
4264,1092.16,0.720
4265,1092.34,0.720
4266,1092.51,0.720
4267,1092.67,0.720
4268,1092.83,0.720
4269,1093.00,0.720
4270,1093.17,0.720
4271,1093.34,0.720
4272,1093.49,0.720
4273,1093.67,0.720
4274,1093.84,0.720
4275,1094.00,0.720
4276,1094.17,0.720
4277,1094.34,0.720
4278,1094.50,0.720
4279,1094.66,0.720
4280,1094.83,0.720
4281,1095.00,0.720
4282,1095.16,0.720
4283,1095.34,0.720
4284,1095.51,0.720
4285,1095.66,0.720
4286,1095.83,0.720
4287,1096.01,0.720
4288,1096.17,0.720
4289,1096.33,0.720
4290,1096.50,0.720
4291,1096.67,0.720
4292,1096.84,0.720
4293,1097.01,0.720
4294,1097.17,0.720
4295,1097.33,0.720
4296,1097.49,0.720
4297,1097.67,0.720
4298,1097.83,0.720
4299,1098.00,0.720
4300,1098.17,0.720
4301,1098.33,0.720
4302,1098.50,0.720
4303,1098.68,0.720
4304,1098.84,0.720
4305,1099.00,0.720
4306,1099.17,0.720
4307,1099.33,0.720
4308,1099.50,0.720
4309,1099.67,0.720
4310,1099.83,0.720
4311,1100.00,0.720
4312,1100.17,0.720
4313,1100.33,0.720
4314,1100.50,0.720
4315,1100.66,0.720
4316,1100.83,0.720
4317,1101.00,0.720
4318,1101.17,0.720
4319,1101.33,0.720
4320,1101.49,0.720
4321,1101.67,0.720
4322,1101.83,0.720
4323,1102.00,0.720
4324,1102.17,0.720
4325,1102.34,0.720
4326,1102.50,0.720
4327,1102.67,0.720
4328,1102.84,0.720
4329,1103.00,0.720
4330,1103.17,0.720
4331,1103.33,0.720
4332,1103.50,0.720
4333,1103.67,0.720
4334,1103.84,0.720
4335,1104.00,0.720
4336,1104.17,0.720
4337,1104.34,0.720
4338,1104.50,0.720
4339,1104.66,0.720
4340,1104.83,0.720
4341,1105.00,0.720
4342,1105.17,0.720
4343,1105.33,0.720
4344,1105.49,0.720
4345,1105.66,0.720
4346,1105.84,0.720
4347,1106.00,0.720
4348,1106.16,0.720
4349,1106.33,0.720
4350,1106.50,0.720
4351,1106.66,0.720
4352,1106.83,0.720
4353,1107.00,0.720
4354,1107.16,0.720
4355,1107.33,0.720
4356,1107.50,0.720
4357,1107.67,0.720
4358,1107.83,0.720
4359,1108.00,0.720
4360,1108.17,0.720
4361,1108.34,0.720
4362,1108.50,0.720
4363,1108.66,0.720
4364,1108.83,0.720
4365,1108.99,0.720
4366,1109.17,0.720
4367,1109.33,0.720
4368,1109.50,0.720
4369,1109.67,0.720
4370,1109.83,0.720
4371,1109.99,0.720
4372,1110.17,0.720
4373,1110.34,0.720
4374,1110.50,0.720
4375,1110.67,0.720
4376,1110.84,0.720
4377,1111.00,0.720
4378,1111.16,0.720
4379,1111.33,0.720
4380,1111.50,0.720
4381,1111.66,0.720
4382,1111.84,0.720
4383,1112.00,0.720
4384,1112.16,0.720
4385,1112.33,0.720
4386,1112.50,0.720
4387,1112.67,0.720
4388,1112.84,0.720
4389,1113.00,0.720
4390,1113.16,0.720
4391,1113.33,0.720
4392,1113.51,0.720
4393,1113.67,0.720
4394,1113.83,0.720
4395,1114.00,0.720
4396,1114.17,0.720
4397,1114.33,0.720
4398,1114.50,0.720
4399,1114.67,0.720
4400,1114.83,0.720
4401,1115.00,0.720
4402,1115.16,0.720
4403,1115.34,0.720
4404,1115.50,0.720
4405,1115.66,0.720
4406,1115.84,0.720
4407,1116.00,0.720
4408,1116.16,0.720
4409,1116.33,0.710
4410,1116.50,0.710
4411,1116.67,0.710
4412,1116.84,0.710
4413,1117.00,0.710
4414,1117.16,0.710
4415,1117.33,0.710
4416,1117.50,0.710
4417,1117.67,0.710
4418,1117.83,0.710
4419,1118.00,0.710
4420,1118.17,0.710
4421,1118.34,0.710
4422,1118.50,0.710
4423,1118.66,0.710
4424,1118.83,0.710
4425,1119.00,0.710
4426,1119.16,0.710
4427,1119.33,0.710
4428,1119.50,0.710
4429,1119.67,0.710
4430,1119.83,0.710
4431,1120.00,0.710
4432,1120.17,0.710
4433,1120.33,0.710
4434,1120.49,0.710
4435,1120.67,0.710
4436,1120.83,0.710
4437,1120.99,0.710
4438,1121.17,0.710
4439,1121.33,0.710
4440,1121.50,0.710
4441,1121.67,0.710
4442,1121.83,0.710
4443,1122.00,0.710
4444,1122.17,0.710
4445,1122.34,0.710
4446,1122.51,0.710
4447,1122.67,0.710
4448,1122.83,0.710
4449,1122.99,0.710
4450,1123.17,0.710
4451,1123.33,0.710
4452,1123.49,0.710
4453,1123.67,0.710
4454,1123.84,0.710
4455,1124.00,0.710
4456,1124.16,0.710
4457,1124.33,0.710
4458,1124.49,0.710
4459,1124.67,0.710
4460,1124.83,0.710
4461,1124.99,0.710
4462,1125.17,0.710
4463,1125.33,0.710
4464,1125.50,0.710
4465,1125.67,0.710
4466,1125.83,0.710
4467,1126.00,0.710
4468,1126.16,0.710
4469,1126.33,0.710
4470,1126.50,0.710
4471,1126.67,0.710
4472,1126.83,0.710
4473,1127.00,0.710
4474,1127.16,0.710
4475,1127.33,0.710
4476,1127.51,0.710
4477,1127.67,0.710
4478,1127.83,0.710
4479,1128.00,0.710
4480,1128.16,0.710
4481,1128.33,0.710
4482,1128.50,0.710
4483,1128.67,0.710
4484,1128.83,0.710
4485,1129.00,0.710
4486,1129.17,0.710
4487,1129.33,0.710
4488,1129.50,0.710
4489,1129.67,0.710
4490,1129.83,0.710
4491,1129.99,0.710
4492,1130.16,0.710
4493,1130.33,0.710
4494,1130.50,0.710
4495,1130.66,0.710
4496,1130.84,0.710
4497,1130.99,0.710
4498,1131.16,0.710
4499,1131.33,0.710
4500,1131.50,0.710
4501,1131.67,0.710
4502,1131.84,0.710
4503,1132.00,0.710
4504,1132.16,0.710
4505,1132.32,0.710
4506,1132.50,0.710
4507,1132.67,0.710
4508,1132.83,0.710
4509,1132.99,0.710
4510,1133.16,0.710
4511,1133.33,0.710
4512,1133.50,0.710
4513,1133.66,0.710
4514,1133.83,0.710
4515,1134.00,0.710
4516,1134.17,0.710
4517,1134.33,0.710
4518,1134.49,0.710
4519,1134.66,0.710
4520,1134.84,0.710
4521,1135.00,0.710
4522,1135.16,0.710
4523,1135.33,0.710
4524,1135.50,0.710
4525,1135.66,0.710
4526,1135.84,0.710
4527,1136.00,0.710
4528,1136.16,0.710
4529,1136.34,0.710
4530,1136.50,0.710
4531,1136.66,0.710
4532,1136.82,0.710
4533,1137.00,0.710
4534,1137.17,0.710
4535,1137.33,0.710
4536,1137.50,0.710
4537,1137.67,0.710
4538,1137.83,0.710
4539,1138.00,0.710
4540,1138.17,0.710
4541,1138.33,0.710
4542,1138.51,0.710
4543,1138.66,0.710
4544,1138.83,0.710
4545,1138.99,0.710
4546,1139.17,0.710
4547,1139.34,0.710
4548,1139.49,0.710
4549,1139.66,0.710
4550,1139.84,0.710
4551,1140.00,0.710
4552,1140.16,0.710
4553,1140.33,0.710
4554,1140.50,0.710
4555,1140.67,0.710
4556,1140.84,0.710
4557,1141.00,0.710
4558,1141.16,0.710
4559,1141.33,0.700
4560,1141.50,0.700
4561,1141.66,0.700
4562,1141.84,0.700
4563,1142.00,0.700
4564,1142.16,0.700
4565,1142.33,0.700
4566,1142.49,0.700
4567,1142.67,0.700
4568,1142.84,0.700
4569,1143.00,0.700
4570,1143.16,0.700
4571,1143.34,0.700
4572,1143.50,0.700
4573,1143.66,0.700
4574,1143.83,0.700
4575,1144.00,0.700
4576,1144.17,0.700
4577,1144.34,0.700
4578,1144.50,0.700
4579,1144.66,0.700
4580,1144.83,0.700
4581,1145.00,0.700
4582,1145.17,0.700
4583,1145.33,0.700
4584,1145.50,0.700
4585,1145.67,0.700
4586,1145.84,0.700
4587,1146.00,0.700
4588,1146.16,0.700
4589,1146.33,0.700
4590,1146.49,0.700
4591,1146.66,0.700
4592,1146.84,0.700
4593,1146.99,0.700
4594,1147.16,0.700
4595,1147.33,0.700
4596,1147.50,0.700
4597,1147.67,0.700
4598,1147.84,0.700
4599,1147.99,0.700
4600,1148.16,0.700
4601,1148.33,0.700
4602,1148.49,0.700
4603,1148.67,0.700
4604,1148.83,0.700
4605,1149.00,0.700
4606,1149.17,0.700
4607,1149.34,0.700
4608,1149.50,0.700
4609,1149.67,0.700
4610,1149.83,0.700
4611,1149.99,0.700
4612,1150.17,0.700
4613,1150.33,0.700
4614,1150.49,0.700
4615,1150.67,0.700
4616,1150.83,0.700
4617,1150.99,0.700
4618,1151.16,0.700
4619,1151.33,0.700
4620,1151.50,0.700
4621,1151.66,0.700
4622,1151.83,0.700
4623,1152.00,0.700
4624,1152.16,0.700
4625,1152.33,0.700
4626,1152.51,0.700
4627,1152.66,0.700
4628,1152.83,0.700
4629,1152.99,0.700
4630,1153.16,0.700
4631,1153.32,0.700
4632,1153.50,0.700
4633,1153.67,0.700
4634,1153.83,0.700
4635,1153.99,0.700
4636,1154.16,0.700
4637,1154.34,0.700
4638,1154.50,0.700
4639,1154.67,0.700
4640,1154.83,0.700
4641,1154.99,0.700
4642,1155.17,0.700
4643,1155.33,0.700
4644,1155.49,0.700
4645,1155.66,0.700
4646,1155.83,0.700
4647,1156.00,0.700
4648,1156.17,0.700
4649,1156.33,0.700
4650,1156.50,0.700
4651,1156.66,0.700
4652,1156.83,0.700
4653,1157.00,0.700
4654,1157.16,0.700
4655,1157.33,0.700
4656,1157.50,0.700
4657,1157.67,0.700
4658,1157.83,0.700
4659,1157.99,0.700
4660,1158.16,0.700
4661,1158.32,0.700
4662,1158.49,0.700
4663,1158.67,0.700
4664,1158.83,0.700
4665,1158.99,0.700
4666,1159.16,0.700
4667,1159.33,0.700
4668,1159.49,0.700
4669,1159.66,0.700
4670,1159.84,0.700
4671,1160.00,0.700
4672,1160.16,0.700
4673,1160.33,0.700
4674,1160.51,0.700
4675,1160.66,0.700
4676,1160.83,0.700
4677,1161.00,0.700
4678,1161.17,0.700
4679,1161.33,0.700
4680,1161.49,0.700
4681,1161.67,0.700
4682,1161.83,0.700
4683,1162.00,0.700
4684,1162.17,0.700
4685,1162.33,0.700
4686,1162.49,0.700
4687,1162.66,0.700
4688,1162.82,0.700
4689,1163.00,0.700
4690,1163.16,0.700
4691,1163.33,0.700
4692,1163.50,0.700
4693,1163.66,0.700
4694,1163.83,0.700
4695,1164.00,0.690
4696,1164.17,0.690
4697,1164.33,0.690
4698,1164.50,0.690
4699,1164.66,0.690
4700,1164.83,0.690
4701,1165.00,0.690
4702,1165.16,0.690
4703,1165.33,0.690
4704,1165.50,0.690
4705,1165.67,0.690
4706,1165.83,0.690
4707,1165.99,0.690
4708,1166.16,0.690
4709,1166.33,0.690
4710,1166.50,0.690
4711,1166.66,0.690
4712,1166.82,0.690
4713,1167.00,0.690
4714,1167.17,0.690
4715,1167.33,0.690
4716,1167.49,0.690
4717,1167.66,0.690
4718,1167.84,0.690
4719,1167.99,0.690
4720,1168.15,0.690
4721,1168.32,0.690
4722,1168.50,0.690
4723,1168.67,0.690
4724,1168.83,0.690
4725,1169.00,0.690
4726,1169.16,0.690
4727,1169.33,0.690
4728,1169.50,0.690
4729,1169.66,0.690
4730,1169.83,0.690
4731,1170.00,0.690
4732,1170.16,0.690
4733,1170.33,0.690
4734,1170.49,0.690
4735,1170.65,0.690
4736,1170.83,0.690
4737,1171.00,0.690
4738,1171.15,0.690
4739,1171.32,0.690
