Time (s),Sample Temperature (K),Weight (mg)
0,383.15,4.921
1,383.15,4.921
2,383.15,4.921
3,383.15,4.921
4,383.15,4.921
5,383.15,4.921
6,383.15,4.922
7,383.15,4.922
8,383.15,4.922
9,383.15,4.922
10,383.17,4.922
11,383.23,4.922
12,383.33,4.922
13,383.44,4.922
14,383.56,4.922
15,383.70,4.922
16,383.83,4.922
17,383.97,4.922
18,384.10,4.922
19,384.23,4.922
20,384.37,4.922
21,384.51,4.922
22,384.65,4.923
23,384.78,4.923
24,384.92,4.923
25,385.06,4.923
26,385.21,4.923
27,385.35,4.923
28,385.49,4.923
29,385.64,4.923
30,385.78,4.923
31,385.92,4.923
32,386.07,4.923
33,386.22,4.923
34,386.36,4.923
35,386.51,4.923
36,386.66,4.923
37,386.81,4.923
38,386.96,4.923
39,387.11,4.923
40,387.26,4.923
41,387.41,4.923
42,387.57,4.923
43,387.73,4.923
44,387.88,4.923
45,388.03,4.923
46,388.18,4.923
47,388.33,4.923
48,388.48,4.923
49,388.64,4.923
50,388.80,4.923
51,388.97,4.923
52,389.12,4.923
53,389.28,4.923
54,389.44,4.923
55,389.59,4.923
56,389.75,4.923
57,389.90,4.923
58,390.06,4.923
59,390.22,4.923
60,390.39,4.923
61,390.55,4.923
62,390.71,4.923
63,390.87,4.923
64,391.03,4.923
65,391.19,4.923
66,391.35,4.923
67,391.51,4.923
68,391.67,4.923
69,391.84,4.923
70,392.00,4.923
71,392.16,4.923
72,392.33,4.923
73,392.49,4.923
74,392.65,4.923
75,392.81,4.923
76,392.98,4.923
77,393.14,4.923
78,393.30,4.923
79,393.47,4.923
80,393.64,4.923
81,393.80,4.923
82,393.96,4.923
83,394.13,4.923
84,394.29,4.923
85,394.45,4.923
86,394.62,4.923
87,394.79,4.923
88,394.95,4.923
89,395.11,4.923
90,395.28,4.923
91,395.45,4.923
92,395.62,4.923
93,395.78,4.923
94,395.94,4.923
95,396.11,4.923
96,396.27,4.923
97,396.44,4.923
98,396.61,4.923
99,396.77,4.922
100,396.94,4.922
101,397.10,4.922
102,397.27,4.922
103,397.43,4.922
104,397.60,4.922
105,397.77,4.922
106,397.94,4.922
107,398.10,4.922
108,398.27,4.922
109,398.43,4.922
110,398.60,4.922
111,398.77,4.922
112,398.93,4.922
113,399.10,4.922
114,399.26,4.922
115,399.43,4.922
116,399.61,4.922
117,399.77,4.922
118,399.94,4.922
119,400.10,4.922
120,400.26,4.922
121,400.43,4.922
122,400.60,4.922
123,400.77,4.922
124,400.94,4.922
125,401.10,4.922
126,401.27,4.922
127,401.44,4.922
128,401.60,4.922
129,401.77,4.922
130,401.94,4.922
131,402.11,4.922
132,402.28,4.922
133,402.44,4.922
134,402.60,4.922
135,402.77,4.922
136,402.93,4.922
137,403.11,4.922
138,403.28,4.922
139,403.45,4.922
140,403.62,4.922
141,403.78,4.922
142,403.95,4.922
143,404.11,4.922
144,404.29,4.922
145,404.45,4.922
146,404.62,4.922
147,404.79,4.922
148,404.95,4.922
149,405.12,4.922
150,405.29,4.922
151,405.46,4.922
152,405.62,4.922
153,405.79,4.921
154,405.96,4.921
155,406.13,4.921
156,406.29,4.921
157,406.46,4.921
158,406.63,4.921
159,406.80,4.921
160,406.97,4.921
161,407.13,4.921
162,407.30,4.921
163,407.46,4.921
164,407.63,4.921
165,407.80,4.921
166,407.97,4.921
167,408.14,4.921
168,408.31,4.921
169,408.48,4.921
170,408.64,4.921
171,408.81,4.921
172,408.97,4.921
173,409.14,4.921
174,409.31,4.921
175,409.48,4.921
176,409.65,4.921
177,409.81,4.921
178,409.98,4.921
179,410.15,4.921
180,410.32,4.921
181,410.49,4.921
182,410.66,4.921
183,410.82,4.921
184,410.99,4.921
185,411.15,4.921
186,411.32,4.921
187,411.49,4.921
188,411.66,4.921
189,411.83,4.921
190,411.99,4.921
191,412.16,4.920
192,412.33,4.920
193,412.49,4.920
194,412.67,4.920
195,412.84,4.920
196,413.00,4.920
197,413.17,4.920
198,413.33,4.920
199,413.51,4.920
200,413.67,4.920
201,413.84,4.920
202,414.01,4.920
203,414.17,4.920
204,414.35,4.920
205,414.51,4.920
206,414.68,4.920
207,414.85,4.920
208,415.01,4.920
209,415.18,4.920
210,415.34,4.920
211,415.51,4.920
212,415.69,4.920
213,415.86,4.920
214,416.02,4.920
215,416.19,4.920
216,416.35,4.920
217,416.52,4.920
218,416.69,4.920
219,416.86,4.919
220,417.03,4.919
221,417.20,4.919
222,417.36,4.919
223,417.53,4.919
224,417.70,4.919
225,417.86,4.919
226,418.03,4.919
227,418.20,4.919
228,418.37,4.919
229,418.54,4.919
230,418.71,4.919
231,418.87,4.919
232,419.04,4.919
233,419.21,4.919
234,419.38,4.919
235,419.55,4.919
236,419.72,4.919
237,419.88,4.919
238,420.04,4.919
239,420.21,4.919
240,420.37,4.918
241,420.55,4.918
242,420.72,4.918
243,420.88,4.918
244,421.06,4.918
245,421.22,4.918
246,421.39,4.918
247,421.56,4.918
248,421.72,4.918
249,421.89,4.918
250,422.06,4.918
251,422.23,4.918
252,422.40,4.918
253,422.57,4.918
254,422.73,4.918
255,422.90,4.918
256,423.07,4.918
257,423.23,4.918
258,423.40,4.918
259,423.57,4.918
260,423.74,4.918
261,423.91,4.917
262,424.08,4.917
263,424.25,4.917
264,424.41,4.917
265,424.58,4.917
266,424.75,4.917
267,424.91,4.917
268,425.08,4.917
269,425.25,4.917
270,425.42,4.917
271,425.59,4.917
272,425.76,4.917
273,425.93,4.917
274,426.09,4.917
275,426.26,4.917
276,426.42,4.917
277,426.59,4.917
278,426.76,4.917
279,426.93,4.916
280,427.10,4.916
281,427.27,4.916
282,427.43,4.916
283,427.59,4.916
284,427.76,4.916
285,427.93,4.916
286,428.10,4.916
287,428.27,4.916
288,428.44,4.916
289,428.60,4.916
290,428.77,4.916
291,428.93,4.916
292,429.10,4.916
293,429.27,4.916
294,429.44,4.915
295,429.61,4.915
296,429.78,4.915
297,429.95,4.915
298,430.11,4.915
299,430.28,4.915
300,430.44,4.915
301,430.60,4.915
302,430.78,4.915
303,430.94,4.915
304,431.12,4.915
305,431.28,4.915
306,431.45,4.915
307,431.62,4.915
308,431.78,4.914
309,431.95,4.914
310,432.11,4.914
311,432.28,4.914
312,432.45,4.914
313,432.62,4.914
314,432.79,4.914
315,432.95,4.914
316,433.12,4.914
317,433.29,4.914
318,433.46,4.914
319,433.62,4.914
320,433.79,4.914
321,433.95,4.913
322,434.12,4.913
323,434.29,4.913
324,434.46,4.913
325,434.63,4.913
326,434.79,4.913
327,434.96,4.913
328,435.13,4.913
329,435.29,4.913
330,435.46,4.913
331,435.63,4.913
332,435.80,4.912
333,435.97,4.912
334,436.14,4.912
335,436.30,4.912
336,436.46,4.912
337,436.63,4.912
338,436.80,4.912
339,436.97,4.912
340,437.14,4.912
341,437.31,4.911
342,437.47,4.911
343,437.64,4.911
344,437.81,4.911
345,437.98,4.911
346,438.14,4.911
347,438.30,4.911
348,438.48,4.911
349,438.64,4.911
350,438.81,4.911
351,438.98,4.910
352,439.15,4.910
353,439.32,4.910
354,439.48,4.910
355,439.65,4.910
356,439.81,4.910
357,439.98,4.910
358,440.15,4.910
359,440.32,4.910
360,440.49,4.909
361,440.66,4.909
362,440.83,4.909
363,440.99,4.909
364,441.15,4.909
365,441.32,4.909
366,441.48,4.909
367,441.65,4.909
368,441.83,4.909
369,441.99,4.908
370,442.16,4.908
371,442.32,4.908
372,442.49,4.908
373,442.66,4.908
374,442.83,4.908
375,442.99,4.908
376,443.16,4.908
377,443.33,4.907
378,443.50,4.907
379,443.66,4.907
380,443.83,4.907
381,443.99,4.907
382,444.16,4.907
383,444.33,4.907
384,444.50,4.906
385,444.68,4.906
386,444.84,4.906
387,445.00,4.906
388,445.16,4.906
389,445.33,4.906
390,445.50,4.906
391,445.68,4.906
392,445.84,4.905
393,446.01,4.905
394,446.17,4.905
395,446.34,4.905
396,446.51,4.905
397,446.67,4.905
398,446.84,4.904
399,447.01,4.904
400,447.18,4.904
401,447.34,4.904
402,447.51,4.904
403,447.68,4.904
404,447.84,4.904
405,448.01,4.903
406,448.18,4.903
407,448.35,4.903
408,448.52,4.903
409,448.69,4.903
410,448.85,4.903
411,449.01,4.902
412,449.18,4.902
413,449.35,4.902
414,449.52,4.902
415,449.69,4.902
416,449.86,4.902
417,450.03,4.901
418,450.19,4.901
419,450.36,4.901
420,450.52,4.901
421,450.69,4.901
422,450.85,4.901
423,451.02,4.900
424,451.20,4.900
425,451.36,4.900
426,451.53,4.900
427,451.70,4.900
428,451.86,4.899
429,452.02,4.899
430,452.19,4.899
431,452.37,4.899
432,452.53,4.899
433,452.70,4.899
434,452.87,4.898
435,453.03,4.898
436,453.20,4.898
437,453.37,4.898
438,453.54,4.898
439,453.71,4.897
440,453.87,4.897
441,454.04,4.897
442,454.20,4.897
443,454.37,4.897
444,454.54,4.896
445,454.71,4.896
446,454.88,4.896
447,455.04,4.896
448,455.21,4.895
449,455.38,4.895
450,455.55,4.895
451,455.71,4.895
452,455.88,4.895
453,456.05,4.894
454,456.21,4.894
455,456.38,4.894
456,456.55,4.894
457,456.71,4.893
458,456.89,4.893
459,457.05,4.893
460,457.22,4.893
461,457.39,4.893
462,457.56,4.892
463,457.71,4.892
464,457.88,4.892
465,458.05,4.892
466,458.22,4.891
467,458.39,4.891
468,458.56,4.891
469,458.72,4.891
470,458.89,4.890
471,459.05,4.890
472,459.23,4.890
473,459.39,4.890
474,459.56,4.889
475,459.72,4.889
476,459.89,4.889
477,460.06,4.889
478,460.23,4.888
479,460.40,4.888
480,460.56,4.888
481,460.73,4.888
482,460.89,4.887
483,461.07,4.887
484,461.24,4.887
485,461.40,4.887
486,461.57,4.886
487,461.73,4.886
488,461.90,4.886
489,462.06,4.885
490,462.24,4.885
491,462.41,4.885
492,462.58,4.885
493,462.75,4.884
494,462.90,4.884
495,463.07,4.884
496,463.24,4.884
497,463.41,4.883
498,463.58,4.883
499,463.75,4.883
500,463.92,4.882
501,464.08,4.882
502,464.24,4.882
503,464.41,4.881
504,464.58,4.881
505,464.75,4.881
506,464.92,4.881
507,465.08,4.880
508,465.25,4.880
509,465.41,4.880
510,465.59,4.879
511,465.75,4.879
512,465.92,4.879
513,466.09,4.878
514,466.25,4.878
515,466.42,4.878
516,466.59,4.877
517,466.76,4.877
518,466.92,4.877
519,467.09,4.876
520,467.26,4.876
521,467.43,4.876
522,467.60,4.875
523,467.76,4.875
524,467.93,4.875
525,468.09,4.874
526,468.26,4.874
527,468.43,4.874
528,468.60,4.873
529,468.77,4.873
530,468.93,4.873
531,469.10,4.872
532,469.26,4.872
533,469.43,4.872
534,469.60,4.871
535,469.77,4.871
536,469.94,4.871
537,470.10,4.870
538,470.27,4.870
539,470.44,4.869
540,470.60,4.869
541,470.77,4.869
542,470.94,4.868
543,471.11,4.868
544,471.27,4.868
545,471.44,4.867
546,471.61,4.867
547,471.78,4.866
548,471.94,4.866
549,472.11,4.866
550,472.28,4.865
551,472.45,4.865
552,472.61,4.864
553,472.78,4.864
554,472.95,4.864
555,473.11,4.863
556,473.28,4.863
557,473.45,4.862
558,473.62,4.862
559,473.79,4.862
560,473.95,4.861
561,474.12,4.861
562,474.28,4.860
563,474.45,4.860
564,474.62,4.860
565,474.79,4.859
566,474.96,4.859
567,475.12,4.858
568,475.29,4.858
569,475.46,4.857
570,475.63,4.857
571,475.80,4.857
572,475.96,4.856
573,476.12,4.856
574,476.29,4.855
575,476.46,4.855
576,476.63,4.854
577,476.80,4.854
578,476.97,4.854
579,477.13,4.853
580,477.29,4.853
581,477.46,4.852
582,477.63,4.852
583,477.80,4.851
584,477.97,4.851
585,478.14,4.850
586,478.30,4.850
587,478.47,4.850
588,478.64,4.849
589,478.81,4.849
590,478.97,4.848
591,479.14,4.848
592,479.30,4.847
593,479.47,4.847
594,479.64,4.846
595,479.81,4.846
596,479.98,4.845
597,480.15,4.845
598,480.31,4.844
599,480.48,4.844
600,480.64,4.843
601,480.81,4.843
602,480.98,4.842
603,481.14,4.842
604,481.32,4.841
605,481.48,4.841
606,481.64,4.840
607,481.81,4.840
608,481.98,4.839
609,482.15,4.839
610,482.32,4.838
611,482.49,4.838
612,482.65,4.837
613,482.82,4.837
614,482.98,4.836
615,483.15,4.836
616,483.32,4.835
617,483.49,4.835
618,483.66,4.834
619,483.83,4.834
620,483.99,4.833
621,484.15,4.833
622,484.32,4.832
623,484.49,4.832
624,484.66,4.831
625,484.83,4.831
626,485.00,4.830
627,485.16,4.830
628,485.33,4.829
629,485.49,4.829
630,485.66,4.828
631,485.83,4.828
632,486.00,4.827
633,486.17,4.827
634,486.33,4.826
635,486.50,4.825
636,486.67,4.825
637,486.84,4.824
638,487.00,4.824
639,487.17,4.823
640,487.33,4.823
641,487.50,4.822
642,487.67,4.822
643,487.84,4.821
644,488.01,4.820
645,488.18,4.820
646,488.35,4.819
647,488.51,4.819
648,488.67,4.818
649,488.84,4.818
650,489.01,4.817
651,489.18,4.817
652,489.35,4.816
653,489.52,4.815
654,489.68,4.815
655,489.84,4.814
656,490.01,4.814
657,490.18,4.813
658,490.35,4.813
659,490.51,4.812
660,490.68,4.811
661,490.85,4.811
662,491.02,4.810
663,491.18,4.810
664,491.35,4.809
665,491.52,4.809
666,491.69,4.808
667,491.85,4.807
668,492.02,4.807
669,492.19,4.806
670,492.36,4.806
671,492.53,4.805
672,492.69,4.804
673,492.86,4.804
674,493.03,4.803
675,493.20,4.803
676,493.36,4.802
677,493.53,4.801
678,493.69,4.801
679,493.86,4.800
680,494.03,4.800
681,494.20,4.799
682,494.37,4.798
683,494.54,4.798
684,494.70,4.797
685,494.86,4.797
686,495.04,4.796
687,495.20,4.795
688,495.37,4.795
689,495.53,4.794
690,495.70,4.793
691,495.87,4.793
692,496.04,4.792
693,496.21,4.791
694,496.37,4.791
695,496.53,4.790
696,496.70,4.790
697,496.87,4.789
698,497.04,4.788
699,497.21,4.788
700,497.38,4.787
701,497.55,4.786
702,497.71,4.786
703,497.87,4.785
704,498.04,4.784
705,498.21,4.784
706,498.39,4.783
707,498.55,4.782
708,498.72,4.782
709,498.88,4.781
710,499.05,4.781
711,499.21,4.780
712,499.38,4.779
713,499.55,4.779
714,499.72,4.778
715,499.89,4.777
716,500.06,4.777
717,500.22,4.776
718,500.38,4.775
719,500.55,4.775
720,500.72,4.774
721,500.89,4.773
722,501.06,4.773
723,501.23,4.772
724,501.39,4.771
725,501.56,4.771
726,501.72,4.770
727,501.90,4.769
728,502.06,4.769
729,502.23,4.768
730,502.40,4.767
731,502.57,4.767
732,502.73,4.766
733,502.90,4.765
734,503.07,4.764
735,503.24,4.764
736,503.41,4.763
737,503.57,4.762
738,503.73,4.762
739,503.91,4.761
740,504.07,4.760
741,504.23,4.760
742,504.40,4.759
743,504.57,4.758
744,504.74,4.757
745,504.91,4.757
746,505.07,4.756
747,505.25,4.755
748,505.41,4.755
749,505.58,4.754
750,505.74,4.753
751,505.91,4.752
752,506.08,4.752
753,506.25,4.751
754,506.41,4.750
755,506.58,4.750
756,506.75,4.749
757,506.91,4.748
758,507.08,4.747
759,507.25,4.747
760,507.42,4.746
761,507.58,4.745
762,507.75,4.744
763,507.92,4.744
764,508.09,4.743
765,508.25,4.742
766,508.42,4.741
767,508.59,4.741
768,508.75,4.740
769,508.92,4.739
770,509.09,4.738
771,509.26,4.738
772,509.43,4.737
773,509.59,4.736
774,509.75,4.735
775,509.93,4.735
776,510.09,4.734
777,510.26,4.733
778,510.43,4.732
779,510.60,4.731
780,510.76,4.731
781,510.92,4.730
782,511.09,4.729
783,511.26,4.728
784,511.43,4.727
785,511.61,4.727
786,511.77,4.726
787,511.94,4.725
788,512.10,4.724
789,512.27,4.723
790,512.43,4.723
791,512.60,4.722
792,512.77,4.721
793,512.94,4.720
794,513.11,4.719
795,513.27,4.718
796,513.44,4.718
797,513.61,4.717
798,513.77,4.716
799,513.94,4.715
800,514.11,4.714
801,514.28,4.713
802,514.45,4.712
803,514.61,4.712
804,514.78,4.711
805,514.95,4.710
806,515.12,4.709
807,515.28,4.708
808,515.45,4.707
809,515.61,4.706
810,515.78,4.705
811,515.95,4.704
812,516.12,4.704
813,516.29,4.703
814,516.45,4.702
815,516.62,4.701
816,516.79,4.700
817,516.96,4.699
818,517.12,4.698
819,517.29,4.697
820,517.45,4.696
821,517.62,4.695
822,517.79,4.695
823,517.96,4.694
824,518.12,4.693
825,518.29,4.692
826,518.46,4.691
827,518.63,4.690
828,518.79,4.689
829,518.96,4.688
830,519.13,4.687
831,519.29,4.686
832,519.46,4.685
833,519.63,4.684
834,519.80,4.683
835,519.97,4.682
836,520.13,4.681
837,520.30,4.680
838,520.47,4.679
839,520.64,4.678
840,520.80,4.677
841,520.97,4.676
842,521.13,4.675
843,521.31,4.674
844,521.47,4.673
845,521.64,4.672
846,521.81,4.671
847,521.97,4.670
848,522.14,4.669
849,522.31,4.668
850,522.47,4.667
851,522.64,4.666
852,522.80,4.665
853,522.97,4.664
854,523.15,4.663
855,523.32,4.662
856,523.48,4.660
857,523.65,4.659
858,523.81,4.658
859,523.98,4.657
860,524.15,4.656
861,524.32,4.655
862,524.48,4.654
863,524.65,4.653
864,524.81,4.652
865,524.98,4.650
866,525.15,4.649
867,525.32,4.648
868,525.49,4.647
869,525.65,4.646
870,525.81,4.645
871,525.98,4.644
872,526.15,4.642
873,526.32,4.641
874,526.49,4.640
875,526.66,4.639
876,526.82,4.638
877,526.99,4.636
878,527.16,4.635
879,527.32,4.634
880,527.49,4.633
881,527.66,4.632
882,527.83,4.630
883,528.00,4.629
884,528.17,4.628
885,528.34,4.627
886,528.50,4.625
887,528.66,4.624
888,528.83,4.623
889,529.00,4.622
890,529.17,4.620
891,529.34,4.619
892,529.50,4.618
893,529.67,4.617
894,529.83,4.615
895,530.01,4.614
896,530.18,4.613
897,530.34,4.611
898,530.50,4.610
899,530.67,4.609
900,530.84,4.607
901,531.01,4.606
902,531.18,4.605
903,531.34,4.603
904,531.50,4.602
905,531.67,4.601
906,531.85,4.599
907,532.01,4.598
908,532.18,4.597
909,532.35,4.595
910,532.51,4.594
911,532.68,4.593
912,532.85,4.591
913,533.01,4.590
914,533.19,4.588
915,533.35,4.587
916,533.52,4.585
917,533.69,4.584
918,533.85,4.583
919,534.02,4.581
920,534.18,4.580
921,534.35,4.578
922,534.52,4.577
923,534.69,4.575
924,534.85,4.574
925,535.02,4.572
926,535.19,4.571
927,535.36,4.570
928,535.53,4.568
929,535.69,4.567
930,535.86,4.565
931,536.03,4.564
932,536.20,4.562
933,536.37,4.561
934,536.53,4.559
935,536.69,4.557
936,536.86,4.556
937,537.03,4.554
938,537.20,4.553
939,537.37,4.551
940,537.53,4.550
941,537.70,4.548
942,537.87,4.546
943,538.04,4.545
944,538.20,4.543
945,538.37,4.542
946,538.53,4.540
947,538.70,4.539
948,538.87,4.537
949,539.04,4.536
950,539.21,4.534
951,539.37,4.533
952,539.54,4.531
953,539.71,4.529
954,539.88,4.528
955,540.04,4.526
956,540.21,4.525
957,540.38,4.523
958,540.55,4.521
959,540.71,4.520
960,540.88,4.518
961,541.04,4.516
962,541.21,4.515
963,541.38,4.513
964,541.55,4.511
965,541.72,4.509
966,541.88,4.508
967,542.05,4.506
968,542.21,4.504
969,542.38,4.503
970,542.56,4.501
971,542.73,4.499
972,542.89,4.497
973,543.05,4.496
974,543.22,4.494
975,543.38,4.492
976,543.55,4.491
977,543.72,4.489
978,543.89,4.487
979,544.06,4.485
980,544.23,4.484
981,544.40,4.482
982,544.56,4.480
983,544.72,4.478
984,544.89,4.477
985,545.07,4.475
986,545.24,4.473
987,545.40,4.471
988,545.56,4.470
989,545.73,4.468
990,545.90,4.466
991,546.06,4.464
992,546.24,4.462
993,546.40,4.461
994,546.57,4.459
995,546.73,4.457
996,546.90,4.455
997,547.07,4.453
998,547.24,4.452
999,547.41,4.450
1000,547.57,4.448
1001,547.74,4.446
1002,547.90,4.444
1003,548.07,4.442
1004,548.24,4.441
1005,548.41,4.439
1006,548.57,4.437
1007,548.74,4.435
1008,548.91,4.433
1009,549.08,4.431
1010,549.25,4.429
1011,549.42,4.427
1012,549.58,4.425
1013,549.74,4.424
1014,549.91,4.422
1015,550.08,4.420
1016,550.26,4.418
1017,550.42,4.416
1018,550.58,4.414
1019,550.74,4.412
1020,550.91,4.410
1021,551.08,4.408
1022,551.25,4.406
1023,551.42,4.405
1024,551.58,4.403
1025,551.75,4.401
1026,551.92,4.399
1027,552.09,4.397
1028,552.25,4.395
1029,552.42,4.393
1030,552.59,4.391
1031,552.76,4.389
1032,552.92,4.387
1033,553.09,4.385
1034,553.26,4.383
1035,553.43,4.381
1036,553.59,4.379
1037,553.76,4.377
1038,553.93,4.375
1039,554.10,4.373
1040,554.26,4.371
1041,554.43,4.369
1042,554.60,4.367
1043,554.77,4.365
1044,554.93,4.363
1045,555.10,4.361
1046,555.27,4.359
1047,555.44,4.357
1048,555.60,4.355
1049,555.77,4.353
1050,555.93,4.351
1051,556.10,4.349
1052,556.27,4.347
1053,556.44,4.345
1054,556.60,4.343
1055,556.77,4.341
1056,556.94,4.338
1057,557.11,4.336
1058,557.29,4.334
1059,557.45,4.332
1060,557.61,4.330
1061,557.77,4.328
1062,557.94,4.326
1063,558.11,4.324
1064,558.28,4.322
1065,558.45,4.320
1066,558.61,4.318
1067,558.78,4.316
1068,558.95,4.314
1069,559.11,4.312
1070,559.28,4.310
1071,559.45,4.307
1072,559.62,4.305
1073,559.78,4.303
1074,559.95,4.301
1075,560.12,4.299
1076,560.28,4.297
1077,560.45,4.295
1078,560.62,4.293
1079,560.79,4.290
1080,560.96,4.288
1081,561.12,4.286
1082,561.28,4.284
1083,561.46,4.282
1084,561.63,4.280
1085,561.80,4.278
1086,561.97,4.275
1087,562.12,4.273
1088,562.29,4.271
1089,562.45,4.269
1090,562.63,4.267
1091,562.80,4.265
1092,562.97,4.263
1093,563.13,4.260
1094,563.29,4.258
1095,563.46,4.256
1096,563.63,4.254
1097,563.81,4.252
1098,563.97,4.250
1099,564.13,4.247
1100,564.30,4.245
1101,564.47,4.243
1102,564.63,4.241
1103,564.81,4.239
1104,564.97,4.236
1105,565.14,4.234
1106,565.31,4.232
1107,565.48,4.230
1108,565.64,4.228
1109,565.80,4.225
1110,565.97,4.223
1111,566.14,4.221
1112,566.31,4.219
1113,566.48,4.217
1114,566.64,4.214
1115,566.81,4.212
1116,566.97,4.210
1117,567.14,4.207
1118,567.31,4.205
1119,567.48,4.203
1120,567.65,4.201
1121,567.82,4.198
1122,567.98,4.196
1123,568.15,4.194
1124,568.31,4.192
1125,568.48,4.189
1126,568.65,4.187
1127,568.82,4.185
1128,568.99,4.183
1129,569.15,4.180
1130,569.32,4.178
1131,569.49,4.176
1132,569.66,4.174
1133,569.83,4.171
1134,569.99,4.169
1135,570.16,4.167
1136,570.33,4.165
1137,570.49,4.162
1138,570.66,4.160
1139,570.83,4.158
1140,571.00,4.155
1141,571.16,4.153
1142,571.33,4.151
1143,571.50,4.149
1144,571.66,4.146
1145,571.83,4.144
1146,572.00,4.142
1147,572.17,4.139
1148,572.33,4.137
1149,572.50,4.135
1150,572.66,4.132
1151,572.83,4.130
1152,573.01,4.128
1153,573.17,4.126
1154,573.33,4.123
1155,573.50,4.121
1156,573.67,4.118
1157,573.84,4.116
1158,574.01,4.114
1159,574.17,4.111
1160,574.34,4.109
1161,574.51,4.107
1162,574.67,4.104
1163,574.84,4.102
1164,575.01,4.100
1165,575.17,4.097
1166,575.34,4.095
1167,575.51,4.093
1168,575.68,4.090
1169,575.84,4.088
1170,576.01,4.085
1171,576.18,4.083
1172,576.34,4.081
1173,576.51,4.078
1174,576.68,4.076
1175,576.85,4.073
1176,577.01,4.071
1177,577.18,4.069
1178,577.35,4.066
1179,577.52,4.064
1180,577.69,4.061
1181,577.85,4.059
1182,578.02,4.057
1183,578.19,4.054
1184,578.36,4.052
1185,578.53,4.049
1186,578.69,4.047
1187,578.86,4.044
1188,579.03,4.042
1189,579.20,4.040
1190,579.36,4.037
1191,579.53,4.035
1192,579.69,4.032
1193,579.86,4.030
1194,580.03,4.027
1195,580.20,4.025
1196,580.36,4.022
1197,580.53,4.020
1198,580.70,4.017
1199,580.87,4.014
1200,581.03,4.012
1201,581.20,4.009
1202,581.37,4.007
1203,581.53,4.004
1204,581.70,4.002
1205,581.87,3.999
1206,582.04,3.997
1207,582.21,3.994
1208,582.37,3.991
1209,582.54,3.989
1210,582.70,3.986
1211,582.87,3.984
1212,583.05,3.981
1213,583.21,3.979
1214,583.37,3.976
1215,583.54,3.973
1216,583.71,3.971
1217,583.87,3.968
1218,584.05,3.965
1219,584.21,3.963
1220,584.38,3.960
1221,584.55,3.958
1222,584.71,3.955
1223,584.88,3.952
1224,585.05,3.950
1225,585.22,3.947
1226,585.38,3.944
1227,585.54,3.942
1228,585.72,3.939
1229,585.88,3.936
1230,586.05,3.934
1231,586.22,3.931
1232,586.39,3.928
1233,586.55,3.925
1234,586.71,3.923
1235,586.89,3.920
1236,587.06,3.917
1237,587.23,3.914
1238,587.39,3.912
1239,587.55,3.909
1240,587.72,3.906
1241,587.89,3.903
1242,588.06,3.901
1243,588.22,3.898
1244,588.39,3.895
1245,588.56,3.892
1246,588.73,3.889
1247,588.90,3.887
1248,589.06,3.884
1249,589.23,3.881
1250,589.40,3.878
1251,589.57,3.875
1252,589.74,3.872
1253,589.90,3.870
1254,590.06,3.867
1255,590.23,3.864
1256,590.40,3.861
1257,590.58,3.858
1258,590.74,3.855
1259,590.90,3.852
1260,591.07,3.849
1261,591.24,3.847
1262,591.41,3.844
1263,591.58,3.841
1264,591.74,3.838
1265,591.90,3.835
1266,592.07,3.832
1267,592.24,3.829
1268,592.41,3.826
1269,592.58,3.823
1270,592.74,3.820
1271,592.91,3.817
1272,593.07,3.814
1273,593.24,3.811
1274,593.41,3.808
1275,593.58,3.805
1276,593.75,3.802
1277,593.91,3.799
1278,594.08,3.796
1279,594.25,3.793
1280,594.41,3.790
1281,594.58,3.786
1282,594.75,3.783
1283,594.92,3.780
1284,595.09,3.777
1285,595.25,3.774
1286,595.42,3.771
1287,595.59,3.768
1288,595.75,3.765
1289,595.92,3.762
1290,596.09,3.758
1291,596.26,3.755
1292,596.43,3.752
1293,596.59,3.749
1294,596.76,3.746
1295,596.93,3.743
1296,597.09,3.739
1297,597.25,3.736
1298,597.43,3.733
1299,597.60,3.730
1300,597.76,3.727
1301,597.93,3.723
1302,598.09,3.720
1303,598.26,3.717
1304,598.43,3.713
1305,598.60,3.710
1306,598.77,3.707
1307,598.93,3.704
1308,599.10,3.700
1309,599.27,3.697
1310,599.44,3.694
1311,599.60,3.690
1312,599.77,3.687
1313,599.94,3.684
1314,600.11,3.680
1315,600.27,3.677
1316,600.43,3.673
1317,600.61,3.670
1318,600.77,3.667
1319,600.95,3.663
1320,601.11,3.660
1321,601.28,3.656
1322,601.44,3.653
1323,601.61,3.650
1324,601.77,3.646
1325,601.95,3.643
1326,602.12,3.639
1327,602.29,3.636
1328,602.45,3.632
1329,602.61,3.629
1330,602.78,3.625
1331,602.95,3.622
1332,603.12,3.618
1333,603.28,3.614
1334,603.45,3.611
1335,603.62,3.607
1336,603.79,3.604
1337,603.95,3.600
1338,604.12,3.596
1339,604.29,3.593
1340,604.46,3.589
1341,604.62,3.586
1342,604.79,3.582
1343,604.96,3.578
1344,605.13,3.575
1345,605.30,3.571
1346,605.46,3.567
1347,605.63,3.564
1348,605.79,3.560
1349,605.96,3.556
1350,606.12,3.552
1351,606.29,3.549
1352,606.46,3.545
1353,606.63,3.541
1354,606.79,3.537
1355,606.96,3.533
1356,607.13,3.530
1357,607.30,3.526
1358,607.46,3.522
1359,607.63,3.518
1360,607.80,3.514
1361,607.97,3.511
1362,608.13,3.507
1363,608.30,3.503
1364,608.47,3.499
1365,608.63,3.495
1366,608.81,3.491
1367,608.97,3.487
1368,609.14,3.483
1369,609.31,3.479
1370,609.47,3.475
1371,609.64,3.471
1372,609.81,3.468
1373,609.98,3.464
1374,610.14,3.460
1375,610.31,3.456
1376,610.47,3.451
1377,610.65,3.447
1378,610.81,3.443
1379,610.98,3.439
1380,611.15,3.435
1381,611.31,3.431
1382,611.49,3.427
1383,611.65,3.423
1384,611.82,3.419
1385,611.98,3.415
1386,612.15,3.411
1387,612.32,3.407
1388,612.49,3.403
1389,612.65,3.398
1390,612.82,3.394
1391,612.98,3.390
1392,613.15,3.386
1393,613.32,3.382
1394,613.49,3.377
1395,613.65,3.373
1396,613.82,3.369
1397,613.99,3.365
1398,614.16,3.361
1399,614.33,3.356
1400,614.49,3.352
1401,614.66,3.348
1402,614.83,3.343
1403,615.00,3.339
1404,615.16,3.335
1405,615.33,3.331
1406,615.50,3.326
1407,615.67,3.322
1408,615.84,3.318
1409,616.00,3.313
1410,616.16,3.309
1411,616.33,3.304
1412,616.50,3.300
1413,616.67,3.296
1414,616.84,3.291
1415,617.01,3.287
1416,617.17,3.282
1417,617.34,3.278
1418,617.50,3.274
1419,617.67,3.269
1420,617.84,3.265
1421,618.01,3.260
1422,618.17,3.256
1423,618.34,3.251
1424,618.51,3.247
1425,618.67,3.242
1426,618.84,3.238
1427,619.01,3.233
1428,619.18,3.229
1429,619.35,3.224
1430,619.51,3.220
1431,619.68,3.215
1432,619.84,3.210
1433,620.01,3.206
1434,620.18,3.201
1435,620.36,3.197
1436,620.51,3.192
1437,620.68,3.187
1438,620.85,3.183
1439,621.02,3.178
1440,621.19,3.173
1441,621.36,3.169
1442,621.52,3.164
1443,621.68,3.159
1444,621.85,3.155
1445,622.02,3.150
1446,622.19,3.145
1447,622.36,3.141
1448,622.53,3.136
1449,622.69,3.131
1450,622.85,3.126
1451,623.02,3.122
1452,623.19,3.117
1453,623.36,3.112
1454,623.53,3.107
1455,623.70,3.103
1456,623.86,3.098
1457,624.02,3.093
1458,624.20,3.088
1459,624.37,3.083
1460,624.54,3.079
1461,624.69,3.074
1462,624.86,3.069
1463,625.03,3.064
1464,625.20,3.059
1465,625.37,3.054
1466,625.53,3.049
1467,625.70,3.045
1468,625.87,3.040
1469,626.04,3.035
1470,626.20,3.030
1471,626.37,3.025
1472,626.54,3.020
1473,626.71,3.015
1474,626.87,3.010
1475,627.05,3.005
1476,627.21,3.000
1477,627.37,2.995
1478,627.54,2.990
1479,627.71,2.985
1480,627.88,2.980
1481,628.04,2.975
1482,628.21,2.970
1483,628.37,2.965
1484,628.54,2.960
1485,628.71,2.955
1486,628.88,2.950
1487,629.05,2.945
1488,629.21,2.940
1489,629.38,2.935
1490,629.55,2.930
1491,629.72,2.925
1492,629.89,2.920
1493,630.05,2.915
1494,630.22,2.910
1495,630.39,2.905
1496,630.55,2.899
1497,630.72,2.894
1498,630.89,2.889
1499,631.06,2.884
1500,631.22,2.879
1501,631.39,2.874
1502,631.55,2.868
1503,631.73,2.863
1504,631.89,2.858
1505,632.07,2.853
1506,632.23,2.848
1507,632.39,2.842
1508,632.56,2.837
1509,632.73,2.832
1510,632.90,2.827
1511,633.07,2.821
1512,633.23,2.816
1513,633.40,2.811
1514,633.56,2.806
1515,633.73,2.800
1516,633.90,2.795
1517,634.07,2.790
1518,634.23,2.784
1519,634.40,2.779
1520,634.56,2.774
1521,634.73,2.768
1522,634.91,2.763
1523,635.08,2.757
1524,635.24,2.752
1525,635.40,2.747
1526,635.57,2.741
1527,635.75,2.736
1528,635.91,2.730
1529,636.07,2.725
1530,636.24,2.720
1531,636.41,2.714
1532,636.58,2.709
1533,636.75,2.703
1534,636.91,2.698
1535,637.07,2.692
1536,637.24,2.687
1537,637.41,2.681
1538,637.59,2.676
1539,637.75,2.670
1540,637.92,2.665
1541,638.08,2.659
1542,638.25,2.654
1543,638.41,2.648
1544,638.59,2.642
1545,638.76,2.637
1546,638.92,2.631
1547,639.09,2.626
1548,639.25,2.620
1549,639.42,2.614
1550,639.58,2.609
1551,639.76,2.603
1552,639.92,2.597
1553,640.09,2.592
1554,640.26,2.586
1555,640.42,2.580
1556,640.59,2.575
1557,640.77,2.569
1558,640.93,2.563
1559,641.09,2.558
1560,641.26,2.552
1561,641.43,2.546
1562,641.60,2.540
1563,641.76,2.535
1564,641.93,2.529
1565,642.09,2.523
1566,642.26,2.517
1567,642.44,2.511
1568,642.61,2.506
1569,642.76,2.500
1570,642.93,2.494
1571,643.10,2.488
1572,643.27,2.482
1573,643.44,2.476
1574,643.60,2.470
1575,643.77,2.465
1576,643.93,2.459
1577,644.10,2.453
1578,644.27,2.447
1579,644.44,2.441
1580,644.61,2.435
1581,644.77,2.429
1582,644.94,2.423
1583,645.11,2.417
1584,645.28,2.411
1585,645.44,2.405
1586,645.61,2.399
1587,645.78,2.393
1588,645.95,2.387
1589,646.12,2.381
1590,646.28,2.375
1591,646.45,2.369
1592,646.62,2.363
1593,646.79,2.357
1594,646.95,2.351
1595,647.12,2.345
1596,647.29,2.339
1597,647.45,2.332
1598,647.62,2.326
1599,647.79,2.320
1600,647.96,2.314
1601,648.12,2.308
1602,648.29,2.302
1603,648.45,2.296
1604,648.62,2.289
1605,648.79,2.283
1606,648.95,2.277
1607,649.13,2.271
1608,649.29,2.265
1609,649.46,2.259
1610,649.63,2.252
1611,649.79,2.246
1612,649.96,2.240
1613,650.13,2.234
1614,650.29,2.227
1615,650.47,2.221
1616,650.63,2.215
1617,650.80,2.209
1618,650.96,2.202
1619,651.13,2.196
1620,651.30,2.190
1621,651.48,2.184
1622,651.63,2.177
1623,651.80,2.171
1624,651.97,2.165
1625,652.14,2.158
1626,652.31,2.152
1627,652.47,2.146
1628,652.64,2.140
1629,652.81,2.133
1630,652.98,2.127
1631,653.14,2.121
1632,653.31,2.114
1633,653.48,2.108
1634,653.64,2.102
1635,653.81,2.095
1636,653.97,2.089
1637,654.14,2.083
1638,654.31,2.076
1639,654.48,2.070
1640,654.65,2.064
1641,654.82,2.057
1642,654.98,2.051
1643,655.14,2.045
1644,655.31,2.038
1645,655.48,2.032
1646,655.65,2.026
1647,655.81,2.019
1648,655.98,2.013
1649,656.15,2.007
1650,656.32,2.000
1651,656.48,1.994
1652,656.65,1.988
1653,656.82,1.981
1654,656.99,1.975
1655,657.16,1.968
1656,657.32,1.962
1657,657.49,1.956
1658,657.65,1.950
1659,657.82,1.943
1660,657.99,1.937
1661,658.16,1.931
1662,658.33,1.924
1663,658.50,1.918
1664,658.66,1.912
1665,658.83,1.905
1666,658.99,1.899
1667,659.16,1.893
1668,659.33,1.887
1669,659.50,1.880
1670,659.66,1.874
1671,659.83,1.868
1672,660.00,1.862
1673,660.17,1.856
1674,660.33,1.849
1675,660.51,1.843
1676,660.67,1.837
1677,660.84,1.831
1678,661.00,1.825
1679,661.17,1.818
1680,661.34,1.812
1681,661.51,1.806
1682,661.68,1.800
1683,661.84,1.794
1684,662.00,1.788
1685,662.17,1.782
1686,662.35,1.776
1687,662.51,1.770
1688,662.68,1.764
1689,662.85,1.758
1690,663.01,1.752
1691,663.18,1.746
1692,663.35,1.740
1693,663.51,1.734
1694,663.68,1.728
1695,663.84,1.722
1696,664.01,1.716
1697,664.18,1.710
1698,664.35,1.704
1699,664.52,1.698
1700,664.68,1.693
1701,664.85,1.687
1702,665.02,1.681
1703,665.19,1.675
1704,665.35,1.669
1705,665.52,1.664
1706,665.68,1.658
1707,665.85,1.652
1708,666.02,1.647
1709,666.20,1.641
1710,666.36,1.636
1711,666.52,1.630
1712,666.68,1.624
1713,666.86,1.619
1714,667.03,1.613
1715,667.20,1.608
1716,667.36,1.602
1717,667.52,1.597
1718,667.69,1.592
1719,667.86,1.586
1720,668.03,1.581
1721,668.20,1.576
1722,668.37,1.570
1723,668.53,1.565
1724,668.70,1.560
1725,668.87,1.555
1726,669.04,1.549
1727,669.20,1.544
1728,669.37,1.539
1729,669.53,1.534
1730,669.70,1.529
1731,669.87,1.524
1732,670.04,1.519
1733,670.21,1.514
1734,670.37,1.509
1735,670.54,1.504
1736,670.71,1.499
1737,670.87,1.495
1738,671.05,1.490
1739,671.21,1.485
1740,671.38,1.480
1741,671.54,1.476
1742,671.72,1.471
1743,671.88,1.466
1744,672.04,1.462
1745,672.21,1.457
1746,672.39,1.453
1747,672.55,1.448
1748,672.72,1.444
1749,672.88,1.439
1750,673.05,1.435
1751,673.22,1.430
1752,673.39,1.426
1753,673.55,1.422
1754,673.72,1.418
1755,673.88,1.413
1756,674.05,1.409
1757,674.22,1.405
1758,674.39,1.401
1759,674.55,1.397
1760,674.72,1.393
1761,674.89,1.389
1762,675.06,1.385
1763,675.22,1.381
1764,675.39,1.377
1765,675.56,1.373
1766,675.73,1.369
1767,675.89,1.366
1768,676.06,1.362
1769,676.23,1.358
1770,676.39,1.355
1771,676.56,1.351
1772,676.73,1.347
1773,676.90,1.344
1774,677.07,1.340
1775,677.23,1.337
1776,677.40,1.333
1777,677.57,1.330
1778,677.74,1.327
1779,677.91,1.323
1780,678.07,1.320
1781,678.24,1.317
1782,678.40,1.314
1783,678.57,1.311
1784,678.74,1.307
1785,678.91,1.304
1786,679.07,1.301
1787,679.24,1.298
1788,679.40,1.295
1789,679.58,1.292
1790,679.74,1.290
1791,679.91,1.287
1792,680.07,1.284
1793,680.24,1.281
1794,680.42,1.279
1795,680.58,1.276
1796,680.74,1.273
1797,680.91,1.271
1798,681.08,1.268
1799,681.25,1.266
1800,681.41,1.263
1801,681.59,1.261
1802,681.75,1.259
1803,681.91,1.256
1804,682.08,1.254
1805,682.25,1.252
1806,682.42,1.249
1807,682.59,1.247
1808,682.75,1.245
1809,682.92,1.243
1810,683.08,1.241
1811,683.26,1.238
1812,683.42,1.236
1813,683.59,1.234
1814,683.75,1.232
1815,683.92,1.230
1816,684.09,1.228
1817,684.26,1.226
1818,684.43,1.224
1819,684.59,1.223
1820,684.76,1.221
1821,684.93,1.219
1822,685.10,1.217
1823,685.26,1.215
1824,685.43,1.213
1825,685.60,1.212
1826,685.77,1.210
1827,685.93,1.208
1828,686.10,1.207
1829,686.27,1.205
1830,686.44,1.204
1831,686.61,1.202
1832,686.77,1.201
1833,686.93,1.199
1834,687.11,1.198
1835,687.27,1.196
1836,687.44,1.195
1837,687.61,1.193
1838,687.78,1.192
1839,687.95,1.191
1840,688.11,1.190
1841,688.27,1.189
1842,688.44,1.188
1843,688.61,1.187
1844,688.78,1.185
1845,688.95,1.184
1846,689.12,1.183
1847,689.28,1.182
1848,689.44,1.181
1849,689.61,1.180
1850,689.79,1.179
1851,689.95,1.178
1852,690.12,1.177
1853,690.28,1.176
1854,690.45,1.175
1855,690.62,1.174
1856,690.79,1.173
1857,690.95,1.172
1858,691.12,1.171
1859,691.29,1.170
1860,691.46,1.169
1861,691.63,1.168
1862,691.79,1.167
1863,691.96,1.166
1864,692.12,1.166
1865,692.30,1.165
1866,692.46,1.164
1867,692.63,1.163
1868,692.80,1.162
1869,692.96,1.161
1870,693.13,1.161
1871,693.29,1.160
1872,693.46,1.159
1873,693.63,1.158
1874,693.79,1.158
1875,693.96,1.157
1876,694.13,1.156
1877,694.30,1.155
1878,694.47,1.155
1879,694.63,1.154
1880,694.80,1.153
1881,694.97,1.152
1882,695.13,1.152
1883,695.30,1.151
1884,695.47,1.150
1885,695.64,1.150
1886,695.80,1.149
1887,695.97,1.149
1888,696.14,1.148
1889,696.31,1.147
1890,696.47,1.147
1891,696.64,1.146
1892,696.81,1.145
1893,696.97,1.145
1894,697.14,1.144
1895,697.31,1.144
1896,697.48,1.143
1897,697.65,1.142
1898,697.81,1.142
1899,697.98,1.141
1900,698.15,1.141
1901,698.31,1.140
1902,698.48,1.139
1903,698.65,1.139
1904,698.81,1.138
1905,698.98,1.138
1906,699.15,1.137
1907,699.32,1.137
1908,699.48,1.136
1909,699.65,1.136
1910,699.82,1.135
1911,699.99,1.134
1912,700.16,1.134
1913,700.32,1.133
1914,700.49,1.133
1915,700.66,1.132
1916,700.82,1.132
1917,700.99,1.131
1918,701.15,1.131
1919,701.33,1.130
1920,701.49,1.130
1921,701.66,1.129
1922,701.83,1.128
1923,701.99,1.128
1924,702.16,1.127
1925,702.32,1.127
1926,702.49,1.126
1927,702.66,1.126
1928,702.82,1.125
1929,702.99,1.125
1930,703.16,1.124
1931,703.32,1.124
1932,703.49,1.123
1933,703.66,1.123
1934,703.82,1.122
1935,703.99,1.122
1936,704.15,1.121
1937,704.32,1.121
1938,704.48,1.120
1939,704.66,1.120
1940,704.83,1.119
1941,704.99,1.119
1942,705.15,1.118
1943,705.32,1.118
1944,705.49,1.117
1945,705.65,1.117
1946,705.82,1.116
1947,705.99,1.116
1948,706.16,1.115
1949,706.32,1.115
1950,706.49,1.114
1951,706.66,1.114
1952,706.83,1.113
1953,706.99,1.113
1954,707.15,1.112
1955,707.32,1.112
1956,707.49,1.111
1957,707.66,1.111
1958,707.82,1.110
1959,707.99,1.110
1960,708.16,1.110
1961,708.32,1.109
1962,708.48,1.109
1963,708.65,1.108
1964,708.82,1.108
1965,708.99,1.107
1966,709.16,1.107
1967,709.32,1.106
1968,709.49,1.106
1969,709.65,1.105
1970,709.82,1.105
1971,709.99,1.104
1972,710.16,1.104
1973,710.32,1.103
1974,710.48,1.103
1975,710.66,1.102
1976,710.83,1.102
1977,710.99,1.101
1978,711.15,1.101
1979,711.32,1.101
1980,711.49,1.100
1981,711.66,1.100
1982,711.82,1.099
1983,711.99,1.099
1984,712.16,1.098
1985,712.32,1.098
1986,712.48,1.097
1987,712.65,1.097
1988,712.82,1.096
1989,712.99,1.096
1990,713.16,1.095
1991,713.32,1.095
1992,713.49,1.094
1993,713.66,1.094
1994,713.82,1.094
1995,713.99,1.093
1996,714.16,1.093
1997,714.32,1.092
1998,714.49,1.092
1999,714.66,1.091
2000,714.82,1.091
2001,714.99,1.090
2002,715.16,1.090
2003,715.32,1.089
2004,715.49,1.089
2005,715.65,1.089
2006,715.82,1.088
2007,715.99,1.088
2008,716.16,1.087
2009,716.32,1.087
2010,716.49,1.086
2011,716.66,1.086
2012,716.83,1.085
2013,716.99,1.085
2014,717.15,1.084
2015,717.32,1.084
2016,717.48,1.083
2017,717.65,1.083
2018,717.82,1.083
2019,717.99,1.082
2020,718.16,1.082
2021,718.32,1.081
2022,718.49,1.081
2023,718.65,1.080
2024,718.82,1.080
2025,718.99,1.079
2026,719.16,1.079
2027,719.32,1.079
2028,719.49,1.078
2029,719.66,1.078
2030,719.82,1.077
2031,719.99,1.077
2032,720.16,1.076
2033,720.32,1.076
2034,720.49,1.075
2035,720.66,1.075
2036,720.82,1.075
2037,720.99,1.074
2038,721.16,1.074
2039,721.33,1.073
2040,721.49,1.073
2041,721.66,1.072
2042,721.82,1.072
2043,721.98,1.071
2044,722.15,1.071
2045,722.32,1.071
2046,722.48,1.070
2047,722.66,1.070
2048,722.82,1.069
2049,722.99,1.069
2050,723.15,1.068
2051,723.32,1.068
2052,723.49,1.067
2053,723.66,1.067
2054,723.82,1.067
2055,723.99,1.066
2056,724.16,1.066
2057,724.32,1.065
2058,724.49,1.065
2059,724.66,1.064
2060,724.82,1.064
2061,724.99,1.063
2062,725.15,1.063
2063,725.33,1.063
2064,725.49,1.062
2065,725.66,1.062
2066,725.82,1.061
2067,725.99,1.061
2068,726.15,1.060
2069,726.32,1.060
2070,726.50,1.060
2071,726.66,1.059
2072,726.82,1.059
2073,726.99,1.058
2074,727.15,1.058
2075,727.32,1.058
2076,727.49,1.057
2077,727.65,1.057
2078,727.82,1.056
2079,728.00,1.056
2080,728.15,1.055
2081,728.32,1.055
2082,728.49,1.055
2083,728.65,1.054
2084,728.82,1.054
2085,728.99,1.053
2086,729.16,1.053
2087,729.32,1.052
2088,729.49,1.052
2089,729.66,1.052
2090,729.82,1.051
2091,729.99,1.051
2092,730.16,1.050
2093,730.33,1.050
2094,730.49,1.049
2095,730.65,1.049
2096,730.82,1.049
2097,730.99,1.048
2098,731.16,1.048
2099,731.32,1.047
2100,731.49,1.047
2101,731.66,1.047
2102,731.82,1.046
2103,731.98,1.046
2104,732.15,1.045
2105,732.32,1.045
2106,732.48,1.045
2107,732.65,1.044
2108,732.82,1.044
2109,732.99,1.043
2110,733.16,1.043
2111,733.32,1.042
2112,733.49,1.042
2113,733.66,1.042
2114,733.82,1.041
2115,733.99,1.041
2116,734.15,1.040
2117,734.32,1.040
2118,734.49,1.040
2119,734.66,1.039
2120,734.82,1.039
2121,734.99,1.038
2122,735.16,1.038
2123,735.32,1.038
2124,735.49,1.037
2125,735.66,1.037
2126,735.83,1.036
2127,735.98,1.036
2128,736.15,1.035
2129,736.32,1.035
2130,736.49,1.035
2131,736.66,1.034
2132,736.83,1.034
2133,736.99,1.033
2134,737.15,1.033
2135,737.32,1.033
2136,737.49,1.032
2137,737.65,1.032
2138,737.82,1.031
2139,737.99,1.031
2140,738.15,1.031
2141,738.32,1.030
2142,738.49,1.030
2143,738.66,1.029
2144,738.83,1.029
2145,738.99,1.029
2146,739.15,1.028
2147,739.32,1.028
2148,739.49,1.027
2149,739.66,1.027
2150,739.82,1.027
2151,739.99,1.026
2152,740.16,1.026
2153,740.32,1.026
2154,740.49,1.025
2155,740.66,1.025
2156,740.83,1.024
2157,740.99,1.024
2158,741.15,1.024
2159,741.32,1.023
2160,741.49,1.023
2161,741.65,1.022
2162,741.82,1.022
2163,741.99,1.022
2164,742.16,1.021
2165,742.32,1.021
2166,742.49,1.020
2167,742.65,1.020
2168,742.82,1.020
2169,742.99,1.019
2170,743.16,1.019
2171,743.33,1.019
2172,743.49,1.018
2173,743.66,1.018
2174,743.82,1.017
2175,743.99,1.017
2176,744.16,1.017
2177,744.33,1.016
2178,744.49,1.016
2179,744.66,1.015
2180,744.82,1.015
2181,744.99,1.015
2182,745.16,1.014
2183,745.33,1.014
2184,745.49,1.014
2185,745.65,1.013
2186,745.82,1.013
2187,745.98,1.012
2188,746.16,1.012
2189,746.32,1.012
2190,746.49,1.011
2191,746.65,1.011
2192,746.82,1.011
2193,746.99,1.010
2194,747.16,1.010
2195,747.32,1.010
2196,747.49,1.009
2197,747.66,1.009
2198,747.82,1.008
2199,747.99,1.008
2200,748.16,1.008
2201,748.32,1.007
2202,748.49,1.007
2203,748.66,1.007
2204,748.82,1.006
2205,748.99,1.006
2206,749.16,1.006
2207,749.32,1.005
2208,749.49,1.005
2209,749.65,1.005
2210,749.82,1.004
2211,749.99,1.004
2212,750.15,1.004
2213,750.32,1.003
2214,750.49,1.003
2215,750.66,1.003
2216,750.82,1.002
2217,750.99,1.002
2218,751.16,1.001
2219,751.33,1.001
2220,751.49,1.001
2221,751.65,1.000
2222,751.82,1.000
2223,752.00,1.000
2224,752.15,0.999
2225,752.32,0.999
2226,752.49,0.999
2227,752.66,0.998
2228,752.82,0.998
2229,752.99,0.998
2230,753.15,0.997
2231,753.32,0.997
2232,753.49,0.996
2233,753.66,0.996
2234,753.82,0.996
2235,753.99,0.995
2236,754.15,0.995
2237,754.32,0.995
2238,754.48,0.994
2239,754.66,0.994
2240,754.82,0.994
2241,754.99,0.993
2242,755.15,0.993
2243,755.32,0.993
2244,755.49,0.992
2245,755.66,0.992
2246,755.82,0.992
2247,755.99,0.991
2248,756.16,0.991
2249,756.33,0.991
2250,756.49,0.990
2251,756.66,0.990
2252,756.83,0.990
2253,756.99,0.989
2254,757.16,0.989
2255,757.33,0.989
2256,757.49,0.988
2257,757.66,0.988
2258,757.82,0.988
2259,757.99,0.987
2260,758.16,0.987
2261,758.32,0.987
2262,758.49,0.986
2263,758.65,0.986
2264,758.82,0.986
2265,758.99,0.985
2266,759.16,0.985
2267,759.32,0.985
2268,759.49,0.984
2269,759.66,0.984
2270,759.82,0.984
2271,759.99,0.983
2272,760.16,0.983
2273,760.32,0.983
2274,760.49,0.983
2275,760.66,0.982
2276,760.82,0.982
2277,760.98,0.982
2278,761.16,0.981
2279,761.32,0.981
2280,761.49,0.981
2281,761.66,0.980
2282,761.83,0.980
2283,761.99,0.980
2284,762.16,0.979
2285,762.33,0.979
2286,762.49,0.979
2287,762.66,0.978
2288,762.82,0.978
2289,762.99,0.978
2290,763.15,0.978
2291,763.32,0.977
2292,763.49,0.977
2293,763.66,0.977
2294,763.82,0.976
2295,763.99,0.976
2296,764.15,0.976
2297,764.33,0.975
2298,764.49,0.975
2299,764.65,0.975
2300,764.83,0.975
2301,764.99,0.974
2302,765.16,0.974
2303,765.32,0.974
2304,765.49,0.973
2305,765.66,0.973
2306,765.83,0.973
2307,765.98,0.972
2308,766.15,0.972
2309,766.32,0.972
2310,766.50,0.972
2311,766.66,0.971
2312,766.82,0.971
2313,766.99,0.971
2314,767.16,0.970
2315,767.33,0.970
2316,767.49,0.970
2317,767.66,0.970
2318,767.82,0.969
2319,767.99,0.969
2320,768.15,0.969
2321,768.32,0.968
2322,768.49,0.968
2323,768.65,0.968
2324,768.82,0.968
2325,768.99,0.967
2326,769.16,0.967
2327,769.32,0.967
2328,769.50,0.966
2329,769.66,0.966
2330,769.82,0.966
2331,769.99,0.966
2332,770.16,0.965
2333,770.33,0.965
2334,770.49,0.965
2335,770.65,0.964
2336,770.81,0.964
2337,770.99,0.964
2338,771.17,0.964
2339,771.33,0.963
2340,771.49,0.963
2341,771.65,0.963
2342,771.83,0.962
2343,772.00,0.962
2344,772.16,0.962
2345,772.32,0.962
2346,772.48,0.961
2347,772.66,0.961
2348,772.83,0.961
2349,772.99,0.961
2350,773.15,0.960
2351,773.32,0.960
2352,773.49,0.960
2353,773.66,0.960
2354,773.82,0.959
2355,773.99,0.959
2356,774.16,0.959
2357,774.33,0.958
2358,774.49,0.958
2359,774.66,0.958
2360,774.82,0.958
2361,774.99,0.957
2362,775.16,0.957
2363,775.32,0.957
2364,775.49,0.957
2365,775.66,0.956
2366,775.83,0.956
2367,775.99,0.956
2368,776.16,0.956
2369,776.33,0.955
2370,776.49,0.955
2371,776.65,0.955
2372,776.82,0.955
2373,776.99,0.954
2374,777.16,0.954
2375,777.32,0.954
2376,777.49,0.953
2377,777.66,0.953
2378,777.82,0.953
2379,777.99,0.953
2380,778.16,0.952
2381,778.33,0.952
2382,778.49,0.952
2383,778.65,0.952
2384,778.83,0.951
2385,778.99,0.951
2386,779.15,0.951
2387,779.32,0.951
2388,779.49,0.950
2389,779.66,0.950
2390,779.83,0.950
2391,779.99,0.950
2392,780.16,0.949
2393,780.32,0.949
2394,780.49,0.949
2395,780.65,0.949
2396,780.82,0.948
2397,780.99,0.948
2398,781.16,0.948
2399,781.32,0.948
2400,781.49,0.947
2401,781.65,0.947
2402,781.83,0.947
2403,781.99,0.947
2404,782.15,0.946
2405,782.32,0.946
2406,782.49,0.946
2407,782.66,0.946
2408,782.82,0.945
2409,782.99,0.945
2410,783.16,0.945
2411,783.33,0.945
2412,783.49,0.944
2413,783.66,0.944
2414,783.82,0.944
2415,783.99,0.944
2416,784.16,0.943
2417,784.32,0.943
2418,784.50,0.943
2419,784.66,0.943
2420,784.83,0.942
2421,784.99,0.942
2422,785.16,0.942
2423,785.32,0.942
2424,785.49,0.942
2425,785.66,0.941
2426,785.82,0.941
2427,785.99,0.941
2428,786.16,0.941
2429,786.32,0.940
2430,786.49,0.940
2431,786.66,0.940
2432,786.83,0.940
2433,786.99,0.940
2434,787.16,0.939
2435,787.33,0.939
2436,787.49,0.939
2437,787.65,0.939
2438,787.82,0.938
2439,787.99,0.938
2440,788.16,0.938
2441,788.33,0.938
2442,788.49,0.938
2443,788.66,0.937
2444,788.82,0.937
2445,788.99,0.937
2446,789.16,0.937
2447,789.32,0.936
2448,789.49,0.936
2449,789.66,0.936
2450,789.82,0.936
2451,789.99,0.936
2452,790.16,0.935
2453,790.32,0.935
2454,790.49,0.935
2455,790.66,0.935
2456,790.83,0.935
2457,790.99,0.934
2458,791.16,0.934
2459,791.33,0.934
2460,791.49,0.934
2461,791.65,0.933
2462,791.82,0.933
2463,791.99,0.933
2464,792.16,0.933
2465,792.32,0.933
2466,792.49,0.932
2467,792.65,0.932
2468,792.82,0.932
2469,792.99,0.932
2470,793.16,0.932
2471,793.33,0.931
2472,793.50,0.931
2473,793.66,0.931
2474,793.82,0.931
2475,793.99,0.930
2476,794.16,0.930
2477,794.33,0.930
2478,794.49,0.930
2479,794.65,0.930
2480,794.83,0.929
2481,794.99,0.929
2482,795.16,0.929
2483,795.33,0.929
2484,795.49,0.929
2485,795.65,0.928
2486,795.82,0.928
2487,796.00,0.928
2488,796.16,0.928
2489,796.32,0.928
2490,796.49,0.927
2491,796.66,0.927
2492,796.83,0.927
2493,796.99,0.927
2494,797.16,0.926
2495,797.33,0.926
2496,797.49,0.926
2497,797.65,0.926
2498,797.83,0.926
2499,797.99,0.925
2500,798.16,0.925
2501,798.32,0.925
2502,798.50,0.925
2503,798.66,0.925
2504,798.82,0.924
2505,798.99,0.924
2506,799.16,0.924
2507,799.32,0.924
2508,799.49,0.923
2509,799.66,0.923
2510,799.83,0.923
2511,799.99,0.923
2512,800.15,0.923
2513,800.32,0.922
2514,800.49,0.922
2515,800.66,0.922
2516,800.83,0.922
2517,801.00,0.922
2518,801.16,0.921
2519,801.32,0.921
2520,801.49,0.921
2521,801.66,0.921
2522,801.82,0.921
2523,801.99,0.920
2524,802.16,0.920
2525,802.33,0.920
2526,802.49,0.920
2527,802.66,0.920
2528,802.83,0.919
2529,802.99,0.919
2530,803.15,0.919
2531,803.32,0.919
2532,803.50,0.919
2533,803.66,0.918
2534,803.82,0.918
2535,803.99,0.918
2536,804.16,0.918
2537,804.32,0.918
2538,804.49,0.917
2539,804.66,0.917
2540,804.83,0.917
2541,805.00,0.917
2542,805.16,0.917
2543,805.33,0.916
2544,805.49,0.916
2545,805.65,0.916
2546,805.82,0.916
2547,805.99,0.916
2548,806.16,0.915
2549,806.33,0.915
2550,806.49,0.915
2551,806.66,0.915
2552,806.82,0.915
2553,806.99,0.914
2554,807.16,0.914
2555,807.33,0.914
2556,807.49,0.914
2557,807.66,0.914
2558,807.83,0.914
2559,808.00,0.913
2560,808.15,0.913
2561,808.32,0.913
2562,808.49,0.913
2563,808.67,0.913
2564,808.83,0.912
2565,808.99,0.912
2566,809.15,0.912
2567,809.32,0.912
2568,809.49,0.912
2569,809.66,0.912
2570,809.83,0.911
2571,809.99,0.911
2572,810.16,0.911
2573,810.33,0.911
2574,810.50,0.911
2575,810.66,0.910
2576,810.82,0.910
2577,810.99,0.910
2578,811.16,0.910
2579,811.32,0.910
2580,811.49,0.909
2581,811.66,0.909
2582,811.82,0.909
2583,811.99,0.909
2584,812.16,0.909
2585,812.33,0.908
2586,812.49,0.908
2587,812.65,0.908
2588,812.82,0.908
2589,812.99,0.908
2590,813.16,0.908
2591,813.33,0.907
2592,813.50,0.907
2593,813.66,0.907
2594,813.83,0.907
2595,813.99,0.907
2596,814.15,0.906
2597,814.33,0.906
2598,814.49,0.906
2599,814.66,0.906
2600,814.83,0.906
2601,815.00,0.905
2602,815.16,0.905
2603,815.33,0.905
2604,815.49,0.905
2605,815.66,0.905
2606,815.83,0.905
2607,815.99,0.904
2608,816.16,0.904
2609,816.33,0.904
2610,816.49,0.904
2611,816.66,0.904
2612,816.83,0.903
2613,817.00,0.903
2614,817.16,0.903
2615,817.33,0.903
2616,817.49,0.903
2617,817.66,0.903
2618,817.82,0.902
2619,818.00,0.902
2620,818.16,0.902
2621,818.32,0.902
2622,818.49,0.902
2623,818.66,0.901
2624,818.82,0.901
2625,818.99,0.901
2626,819.17,0.901
2627,819.33,0.901
2628,819.49,0.901
2629,819.66,0.900
2630,819.83,0.900
2631,819.99,0.900
2632,820.16,0.900
2633,820.33,0.900
2634,820.50,0.899
2635,820.66,0.899
2636,820.83,0.899
2637,820.99,0.899
2638,821.16,0.899
2639,821.33,0.899
2640,821.49,0.898
2641,821.65,0.898
2642,821.83,0.898
2643,822.00,0.898
2644,822.16,0.898
2645,822.32,0.897
2646,822.49,0.897
2647,822.66,0.897
2648,822.83,0.897
2649,822.99,0.897
2650,823.16,0.897
2651,823.33,0.896
2652,823.49,0.896
2653,823.66,0.896
2654,823.83,0.896
2655,824.00,0.896
2656,824.16,0.895
2657,824.33,0.895
2658,824.49,0.895
2659,824.66,0.895
2660,824.83,0.895
2661,824.99,0.895
2662,825.16,0.894
2663,825.32,0.894
2664,825.49,0.894
2665,825.66,0.894
2666,825.83,0.894
2667,825.99,0.893
2668,826.16,0.893
2669,826.33,0.893
2670,826.49,0.893
2671,826.66,0.893
2672,826.83,0.893
2673,827.00,0.892
2674,827.16,0.892
2675,827.33,0.892
2676,827.50,0.892
2677,827.66,0.892
2678,827.83,0.891
2679,827.99,0.891
2680,828.16,0.891
2681,828.33,0.891
2682,828.49,0.891
2683,828.66,0.891
2684,828.83,0.890
2685,829.00,0.890
2686,829.16,0.890
2687,829.33,0.890
2688,829.49,0.890
2689,829.66,0.890
2690,829.83,0.890
2691,830.00,0.889
2692,830.16,0.889
2693,830.33,0.889
2694,830.49,0.889
2695,830.66,0.889
2696,830.83,0.888
2697,830.99,0.888
2698,831.16,0.888
2699,831.33,0.888
2700,831.49,0.888
2701,831.66,0.888
2702,831.83,0.887
2703,831.99,0.887
2704,832.16,0.887
2705,832.33,0.887
2706,832.50,0.887
2707,832.66,0.887
2708,832.83,0.886
2709,832.99,0.886
2710,833.16,0.886
2711,833.32,0.886
2712,833.49,0.886
2713,833.66,0.886
2714,833.83,0.885
2715,833.99,0.885
2716,834.16,0.885
2717,834.33,0.885
2718,834.49,0.885
2719,834.66,0.885
2720,834.83,0.884
2721,834.99,0.884
2722,835.16,0.884
2723,835.33,0.884
2724,835.49,0.884
2725,835.66,0.883
2726,835.83,0.883
2727,836.00,0.883
2728,836.16,0.883
2729,836.33,0.883
2730,836.49,0.883
2731,836.66,0.882
2732,836.82,0.882
2733,836.99,0.882
2734,837.16,0.882
2735,837.32,0.882
2736,837.49,0.882
2737,837.66,0.881
2738,837.83,0.881
2739,838.00,0.881
2740,838.16,0.881
2741,838.33,0.881
2742,838.50,0.881
2743,838.66,0.880
2744,838.82,0.880
2745,838.99,0.880
2746,839.16,0.880
2747,839.33,0.880
2748,839.49,0.880
2749,839.66,0.879
2750,839.83,0.879
2751,840.00,0.879
2752,840.16,0.879
2753,840.33,0.879
2754,840.50,0.879
2755,840.66,0.878
2756,840.82,0.878
2757,840.99,0.878
2758,841.16,0.878
2759,841.33,0.878
2760,841.49,0.878
2761,841.66,0.877
2762,841.83,0.877
2763,841.99,0.877
2764,842.17,0.877
2765,842.33,0.877
2766,842.49,0.877
2767,842.66,0.876
2768,842.83,0.876
2769,842.99,0.876
2770,843.16,0.876
2771,843.33,0.876
2772,843.50,0.876
2773,843.66,0.875
2774,843.82,0.875
2775,843.99,0.875
2776,844.16,0.875
2777,844.33,0.875
2778,844.50,0.875
2779,844.66,0.875
2780,844.83,0.874
2781,844.99,0.874
2782,845.16,0.874
2783,845.33,0.874
2784,845.49,0.874
2785,845.67,0.874
2786,845.83,0.873
2787,845.99,0.873
2788,846.16,0.873
2789,846.33,0.873
2790,846.49,0.873
2791,846.66,0.873
2792,846.83,0.872
2793,847.00,0.872
2794,847.16,0.872
2795,847.32,0.872
2796,847.49,0.872
2797,847.67,0.872
2798,847.83,0.872
2799,847.99,0.871
2800,848.16,0.871
2801,848.33,0.871
2802,848.50,0.871
2803,848.66,0.871
2804,848.83,0.870
2805,848.99,0.870
2806,849.16,0.870
2807,849.33,0.870
2808,849.49,0.870
2809,849.66,0.870
2810,849.83,0.870
2811,849.99,0.869
2812,850.16,0.869
2813,850.32,0.869
2814,850.50,0.869
2815,850.66,0.869
2816,850.83,0.869
2817,850.99,0.868
2818,851.16,0.868
2819,851.33,0.868
2820,851.49,0.868
2821,851.66,0.868
2822,851.83,0.868
2823,852.00,0.867
2824,852.16,0.867
2825,852.33,0.867
2826,852.49,0.867
2827,852.66,0.867
2828,852.83,0.867
2829,853.00,0.867
2830,853.16,0.866
2831,853.33,0.866
2832,853.50,0.866
2833,853.67,0.866
2834,853.83,0.866
2835,854.00,0.866
2836,854.16,0.865
2837,854.33,0.865
2838,854.50,0.865
2839,854.66,0.865
2840,854.83,0.865
2841,855.00,0.865
2842,855.17,0.865
2843,855.33,0.864
2844,855.49,0.864
2845,855.66,0.864
2846,855.83,0.864
2847,855.99,0.864
2848,856.16,0.864
2849,856.33,0.863
2850,856.50,0.863
2851,856.67,0.863
2852,856.83,0.863
2853,857.00,0.863
2854,857.16,0.863
2855,857.33,0.863
2856,857.50,0.862
2857,857.66,0.862
2858,857.83,0.862
2859,858.00,0.862
2860,858.17,0.862
2861,858.33,0.862
2862,858.49,0.861
2863,858.66,0.861
2864,858.83,0.861
2865,859.00,0.861
2866,859.16,0.861
2867,859.33,0.861
2868,859.49,0.860
2869,859.66,0.860
2870,859.83,0.860
2871,859.99,0.860
2872,860.16,0.860
2873,860.33,0.860
2874,860.50,0.860
2875,860.66,0.859
2876,860.83,0.859
2877,861.00,0.859
2878,861.16,0.859
2879,861.33,0.859
2880,861.50,0.859
2881,861.67,0.858
2882,861.83,0.858
2883,861.99,0.858
2884,862.16,0.858
2885,862.33,0.858
2886,862.49,0.858
2887,862.66,0.858
2888,862.83,0.857
2889,863.00,0.857
2890,863.16,0.857
2891,863.33,0.857
2892,863.50,0.857
2893,863.66,0.857
2894,863.83,0.857
2895,864.00,0.856
2896,864.17,0.856
2897,864.33,0.856
2898,864.50,0.856
2899,864.67,0.856
2900,864.83,0.856
2901,865.00,0.856
2902,865.16,0.855
2903,865.33,0.855
2904,865.50,0.855
2905,865.67,0.855
2906,865.83,0.855
2907,865.99,0.855
2908,866.16,0.854
2909,866.33,0.854
2910,866.49,0.854
2911,866.66,0.854
2912,866.83,0.854
2913,866.99,0.854
2914,867.16,0.853
2915,867.33,0.853
2916,867.49,0.853
2917,867.66,0.853
2918,867.83,0.853
2919,867.99,0.853
2920,868.16,0.853
2921,868.34,0.852
2922,868.49,0.852
2923,868.66,0.852
2924,868.82,0.852
2925,869.00,0.852
2926,869.17,0.852
2927,869.33,0.851
2928,869.50,0.851
2929,869.66,0.851
2930,869.83,0.851
2931,870.00,0.851
2932,870.16,0.851
2933,870.33,0.851
2934,870.49,0.850
2935,870.66,0.850
2936,870.83,0.850
2937,871.00,0.850
2938,871.16,0.850
2939,871.33,0.850
2940,871.50,0.850
2941,871.67,0.849
2942,871.83,0.849
2943,872.00,0.849
2944,872.16,0.849
2945,872.32,0.849
2946,872.49,0.849
2947,872.67,0.849
2948,872.84,0.848
2949,873.00,0.848
2950,873.17,0.848
2951,873.33,0.848
2952,873.49,0.848
2953,873.67,0.848
2954,873.83,0.848
2955,873.99,0.847
2956,874.16,0.847
2957,874.33,0.847
2958,874.49,0.847
2959,874.66,0.847
2960,874.83,0.847
2961,875.00,0.847
2962,875.16,0.846
2963,875.33,0.846
2964,875.50,0.846
2965,875.67,0.846
2966,875.83,0.846
2967,876.00,0.846
2968,876.17,0.846
2969,876.33,0.845
2970,876.50,0.845
2971,876.66,0.845
2972,876.83,0.845
2973,877.00,0.845
2974,877.16,0.845
2975,877.33,0.845
2976,877.50,0.844
2977,877.66,0.844
2978,877.83,0.844
2979,878.00,0.844
2980,878.16,0.844
2981,878.33,0.844
2982,878.50,0.843
2983,878.66,0.843
2984,878.83,0.843
2985,879.00,0.843
2986,879.17,0.843
2987,879.33,0.843
2988,879.50,0.843
2989,879.67,0.842
2990,879.84,0.842
2991,880.00,0.842
2992,880.17,0.842
2993,880.33,0.842
2994,880.49,0.842
2995,880.67,0.842
2996,880.83,0.841
2997,880.99,0.841
2998,881.16,0.841
2999,881.34,0.841
3000,881.50,0.841
3001,881.66,0.841
3002,881.83,0.841
3003,882.00,0.840
3004,882.17,0.840
3005,882.33,0.840
3006,882.50,0.840
3007,882.67,0.840
3008,882.83,0.840
3009,883.00,0.839
3010,883.16,0.839
3011,883.33,0.839
3012,883.49,0.839
3013,883.67,0.839
3014,883.83,0.839
3015,884.00,0.839
3016,884.16,0.838
3017,884.33,0.838
3018,884.50,0.838
3019,884.66,0.838
3020,884.83,0.838
3021,885.00,0.838
3022,885.17,0.838
3023,885.33,0.837
3024,885.50,0.837
3025,885.67,0.837
3026,885.83,0.837
3027,886.00,0.837
3028,886.17,0.837
3029,886.33,0.837
3030,886.50,0.837
3031,886.67,0.836
3032,886.83,0.836
3033,887.00,0.836
3034,887.16,0.836
3035,887.34,0.836
3036,887.50,0.836
3037,887.66,0.836
3038,887.83,0.835
3039,888.00,0.835
3040,888.17,0.835
3041,888.33,0.835
3042,888.50,0.835
3043,888.67,0.835
3044,888.83,0.835
3045,889.00,0.834
3046,889.17,0.834
3047,889.33,0.834
3048,889.50,0.834
3049,889.67,0.834
3050,889.83,0.834
3051,890.00,0.834
3052,890.16,0.833
3053,890.33,0.833
3054,890.50,0.833
3055,890.67,0.833
3056,890.83,0.833
3057,891.00,0.833
3058,891.17,0.833
3059,891.33,0.832
3060,891.50,0.832
3061,891.67,0.832
3062,891.83,0.832
3063,892.00,0.832
3064,892.17,0.832
3065,892.34,0.832
3066,892.50,0.831
3067,892.67,0.831
3068,892.83,0.831
3069,893.00,0.831
3070,893.16,0.831
3071,893.33,0.831
3072,893.50,0.831
3073,893.67,0.830
3074,893.83,0.830
3075,894.00,0.830
3076,894.17,0.830
3077,894.34,0.830
3078,894.50,0.830
3079,894.66,0.830
3080,894.83,0.829
3081,895.00,0.829
3082,895.17,0.829
3083,895.33,0.829
3084,895.50,0.829
3085,895.67,0.829
3086,895.83,0.829
3087,896.00,0.828
3088,896.16,0.828
3089,896.33,0.828
3090,896.50,0.828
3091,896.67,0.828
3092,896.83,0.828
3093,896.99,0.828
3094,897.17,0.828
3095,897.34,0.827
3096,897.50,0.827
3097,897.66,0.827
3098,897.83,0.827
3099,898.00,0.827
3100,898.17,0.827
3101,898.33,0.827
3102,898.50,0.826
3103,898.67,0.826
3104,898.83,0.826
3105,899.00,0.826
3106,899.16,0.826
3107,899.33,0.826
3108,899.50,0.826
3109,899.66,0.825
3110,899.83,0.825
3111,900.00,0.825
3112,900.17,0.825
3113,900.33,0.825
3114,900.50,0.825
3115,900.67,0.825
3116,900.83,0.825
3117,901.00,0.824
3118,901.17,0.824
3119,901.33,0.824
3120,901.50,0.824
3121,901.67,0.824
3122,901.83,0.824
3123,902.00,0.824
3124,902.17,0.823
3125,902.34,0.823
3126,902.50,0.823
3127,902.67,0.823
3128,902.83,0.823
3129,903.00,0.823
3130,903.16,0.823
3131,903.33,0.823
3132,903.50,0.822
3133,903.66,0.822
3134,903.84,0.822
3135,904.00,0.822
3136,904.16,0.822
3137,904.33,0.822
3138,904.51,0.822
3139,904.66,0.821
3140,904.83,0.821
3141,905.00,0.821
3142,905.17,0.821
3143,905.33,0.821
3144,905.50,0.821
3145,905.67,0.821
3146,905.84,0.820
3147,906.00,0.820
3148,906.17,0.820
3149,906.34,0.820
3150,906.50,0.820
3151,906.66,0.820
3152,906.83,0.820
3153,907.00,0.820
3154,907.17,0.819
3155,907.33,0.819
3156,907.50,0.819
3157,907.67,0.819
3158,907.83,0.819
3159,908.00,0.819
3160,908.17,0.819
3161,908.34,0.819
3162,908.50,0.818
3163,908.66,0.818
3164,908.83,0.818
3165,909.00,0.818
3166,909.17,0.818
3167,909.34,0.818
3168,909.50,0.818
3169,909.66,0.817
3170,909.83,0.817
3171,910.00,0.817
3172,910.16,0.817
3173,910.33,0.817
3174,910.50,0.817
3175,910.67,0.817
3176,910.83,0.817
3177,911.00,0.816
3178,911.17,0.816
3179,911.33,0.816
3180,911.50,0.816
3181,911.67,0.816
3182,911.83,0.816
3183,912.00,0.816
3184,912.17,0.815
3185,912.34,0.815
3186,912.50,0.815
3187,912.67,0.815
3188,912.83,0.815
3189,913.00,0.815
3190,913.17,0.815
3191,913.33,0.815
3192,913.50,0.814
3193,913.67,0.814
3194,913.84,0.814
3195,914.00,0.814
3196,914.16,0.814
3197,914.34,0.814
3198,914.50,0.814
3199,914.67,0.813
3200,914.83,0.813
3201,915.00,0.813
3202,915.17,0.813
3203,915.34,0.813
3204,915.50,0.813
3205,915.67,0.813
3206,915.83,0.813
3207,916.00,0.812
3208,916.17,0.812
3209,916.34,0.812
3210,916.50,0.812
3211,916.67,0.812
3212,916.84,0.812
3213,917.00,0.812
3214,917.17,0.812
3215,917.34,0.811
3216,917.50,0.811
3217,917.67,0.811
3218,917.84,0.811
3219,918.00,0.811
3220,918.17,0.811
3221,918.33,0.811
3222,918.50,0.811
3223,918.66,0.811
3224,918.83,0.810
3225,919.00,0.810
3226,919.17,0.810
3227,919.34,0.810
3228,919.50,0.810
3229,919.67,0.810
3230,919.84,0.810
3231,920.00,0.810
3232,920.17,0.809
3233,920.33,0.809
3234,920.51,0.809
3235,920.67,0.809
3236,920.83,0.809
3237,921.01,0.809
3238,921.17,0.809
3239,921.34,0.809
3240,921.50,0.808
3241,921.67,0.808
3242,921.83,0.808
3243,922.00,0.808
3244,922.17,0.808
3245,922.33,0.808
3246,922.50,0.808
3247,922.66,0.808
3248,922.83,0.807
3249,923.00,0.807
3250,923.17,0.807
3251,923.33,0.807
3252,923.50,0.807
3253,923.67,0.807
3254,923.83,0.807
3255,924.00,0.807
3256,924.17,0.806
3257,924.34,0.806
3258,924.50,0.806
3259,924.67,0.806
3260,924.83,0.806
3261,925.00,0.806
3262,925.17,0.806
3263,925.33,0.806
3264,925.50,0.805
3265,925.67,0.805
3266,925.84,0.805
3267,926.00,0.805
3268,926.17,0.805
3269,926.33,0.805
3270,926.50,0.805
3271,926.67,0.805
3272,926.83,0.804
3273,927.00,0.804
3274,927.17,0.804
3275,927.33,0.804
3276,927.50,0.804
3277,927.66,0.804
3278,927.83,0.804
3279,928.00,0.804
3280,928.17,0.804
3281,928.33,0.803
3282,928.50,0.803
3283,928.67,0.803
3284,928.83,0.803
3285,929.00,0.803
3286,929.17,0.803
3287,929.34,0.803
3288,929.50,0.803
3289,929.67,0.803
3290,929.84,0.802
3291,930.01,0.802
3292,930.17,0.802
3293,930.34,0.802
3294,930.51,0.802
3295,930.67,0.802
3296,930.83,0.802
3297,931.00,0.802
3298,931.17,0.802
3299,931.34,0.801
3300,931.50,0.801
3301,931.67,0.801
3302,931.84,0.801
3303,932.00,0.801
3304,932.17,0.801
3305,932.33,0.801
3306,932.50,0.801
3307,932.67,0.800
3308,932.83,0.800
3309,933.00,0.800
3310,933.17,0.800
3311,933.34,0.800
3312,933.50,0.800
3313,933.67,0.800
3314,933.83,0.800
3315,934.00,0.799
3316,934.17,0.799
3317,934.33,0.799
3318,934.51,0.799
3319,934.67,0.799
3320,934.83,0.799
3321,935.00,0.799
3322,935.17,0.799
3323,935.33,0.799
3324,935.50,0.798
3325,935.67,0.798
3326,935.84,0.798
3327,936.01,0.798
3328,936.17,0.798
3329,936.33,0.798
3330,936.50,0.798
3331,936.67,0.798
3332,936.84,0.797
3333,937.00,0.797
3334,937.17,0.797
3335,937.33,0.797
3336,937.50,0.797
3337,937.67,0.797
3338,937.83,0.797
3339,938.01,0.797
3340,938.17,0.797
3341,938.33,0.796
3342,938.51,0.796
3343,938.67,0.796
3344,938.83,0.796
3345,939.00,0.796
3346,939.17,0.796
3347,939.34,0.796
3348,939.51,0.796
3349,939.67,0.796
3350,939.83,0.796
3351,940.00,0.795
3352,940.16,0.795
3353,940.33,0.795
3354,940.50,0.795
3355,940.66,0.795
3356,940.84,0.795
3357,941.00,0.795
3358,941.17,0.795
3359,941.33,0.795
3360,941.50,0.794
3361,941.67,0.794
3362,941.83,0.794
3363,942.00,0.794
3364,942.18,0.794
3365,942.33,0.794
3366,942.50,0.794
3367,942.67,0.794
3368,942.83,0.794
3369,943.00,0.793
3370,943.17,0.793
3371,943.33,0.793
3372,943.50,0.793
3373,943.67,0.793
3374,943.83,0.793
3375,944.00,0.793
3376,944.17,0.793
3377,944.34,0.793
3378,944.51,0.792
3379,944.67,0.792
3380,944.84,0.792
3381,945.00,0.792
3382,945.17,0.792
3383,945.34,0.792
3384,945.51,0.792
3385,945.67,0.792
3386,945.84,0.792
3387,945.99,0.792
3388,946.17,0.791
3389,946.33,0.791
3390,946.50,0.791
3391,946.67,0.791
3392,946.84,0.791
3393,947.00,0.791
3394,947.17,0.791
3395,947.34,0.791
3396,947.50,0.791
3397,947.67,0.790
3398,947.84,0.790
3399,948.01,0.790
3400,948.17,0.790
3401,948.34,0.790
3402,948.51,0.790
3403,948.67,0.790
3404,948.83,0.790
3405,949.00,0.790
3406,949.17,0.790
3407,949.34,0.789
3408,949.50,0.789
3409,949.67,0.789
3410,949.84,0.789
3411,950.00,0.789
3412,950.17,0.789
3413,950.33,0.789
3414,950.51,0.789
3415,950.67,0.789
3416,950.84,0.788
3417,951.01,0.788
3418,951.17,0.788
3419,951.34,0.788
3420,951.50,0.788
3421,951.67,0.788
3422,951.83,0.788
3423,952.00,0.788
3424,952.17,0.788
3425,952.33,0.788
3426,952.50,0.787
3427,952.67,0.787
3428,952.83,0.787
3429,953.00,0.787
3430,953.17,0.787
3431,953.33,0.787
3432,953.50,0.787
3433,953.67,0.787
3434,953.84,0.787
3435,954.01,0.786
3436,954.17,0.786
3437,954.34,0.786
3438,954.50,0.786
3439,954.66,0.786
3440,954.83,0.786
3441,955.01,0.786
3442,955.17,0.786
3443,955.33,0.786
3444,955.50,0.786
3445,955.68,0.786
3446,955.84,0.785
3447,956.00,0.785
3448,956.17,0.785
3449,956.34,0.785
3450,956.50,0.785
3451,956.67,0.785
3452,956.84,0.785
3453,957.01,0.785
3454,957.17,0.785
3455,957.34,0.785
3456,957.51,0.785
3457,957.67,0.784
3458,957.83,0.784
3459,958.00,0.784
3460,958.17,0.784
3461,958.33,0.784
3462,958.50,0.784
3463,958.67,0.784
3464,958.83,0.784
3465,959.00,0.784
3466,959.17,0.784
3467,959.33,0.783
3468,959.50,0.783
3469,959.68,0.783
3470,959.84,0.783
3471,960.00,0.783
3472,960.16,0.783
3473,960.33,0.783
3474,960.51,0.783
3475,960.67,0.783
3476,960.83,0.783
3477,961.01,0.782
3478,961.17,0.782
3479,961.33,0.782
3480,961.50,0.782
3481,961.67,0.782
3482,961.83,0.782
3483,962.00,0.782
3484,962.17,0.782
3485,962.34,0.782
3486,962.50,0.782
3487,962.67,0.781
3488,962.83,0.781
3489,963.00,0.781
3490,963.17,0.781
3491,963.34,0.781
3492,963.51,0.781
3493,963.67,0.781
3494,963.83,0.781
3495,964.01,0.781
3496,964.17,0.781
3497,964.34,0.781
3498,964.50,0.781
3499,964.67,0.780
3500,964.84,0.780
3501,965.01,0.780
3502,965.17,0.780
3503,965.33,0.780
3504,965.50,0.780
3505,965.67,0.780
3506,965.83,0.780
3507,966.00,0.780
3508,966.17,0.780
3509,966.33,0.779
3510,966.50,0.779
3511,966.67,0.779
3512,966.84,0.779
3513,967.01,0.779
3514,967.17,0.779
3515,967.34,0.779
3516,967.51,0.779
3517,967.67,0.779
3518,967.83,0.779
3519,968.00,0.778
3520,968.17,0.778
3521,968.34,0.778
3522,968.51,0.778
3523,968.67,0.778
3524,968.84,0.778
3525,969.00,0.778
3526,969.17,0.778
3527,969.34,0.778
3528,969.50,0.778
3529,969.67,0.777
3530,969.84,0.777
3531,970.00,0.777
3532,970.17,0.777
3533,970.34,0.777
3534,970.50,0.777
3535,970.68,0.777
3536,970.84,0.777
3537,971.00,0.777
3538,971.17,0.777
3539,971.33,0.777
3540,971.50,0.776
3541,971.67,0.776
3542,971.84,0.776
3543,972.00,0.776
3544,972.17,0.776
3545,972.34,0.776
3546,972.51,0.776
3547,972.67,0.776
3548,972.84,0.776
3549,973.01,0.776
3550,973.17,0.776
3551,973.34,0.776
3552,973.50,0.775
3553,973.67,0.775
3554,973.84,0.775
3555,974.01,0.775
3556,974.17,0.775
3557,974.33,0.775
3558,974.50,0.775
3559,974.67,0.775
3560,974.84,0.775
3561,975.00,0.775
3562,975.17,0.775
3563,975.34,0.774
3564,975.50,0.774
3565,975.67,0.774
3566,975.84,0.774
3567,976.00,0.774
3568,976.17,0.774
3569,976.33,0.774
3570,976.50,0.774
3571,976.67,0.774
3572,976.84,0.774
3573,977.00,0.774
3574,977.17,0.773
3575,977.34,0.773
3576,977.50,0.773
3577,977.67,0.773
3578,977.84,0.773
3579,978.00,0.773
3580,978.17,0.773
3581,978.34,0.773
3582,978.50,0.773
3583,978.67,0.773
3584,978.84,0.773
3585,979.00,0.773
3586,979.17,0.772
3587,979.34,0.772
3588,979.50,0.772
3589,979.67,0.772
3590,979.83,0.772
3591,980.00,0.772
3592,980.17,0.772
3593,980.34,0.772
3594,980.50,0.772
3595,980.67,0.772
3596,980.84,0.772
3597,981.00,0.771
3598,981.17,0.771
3599,981.34,0.771
3600,981.51,0.771
3601,981.67,0.771
3602,981.84,0.771
3603,982.01,0.771
3604,982.17,0.771
3605,982.34,0.771
3606,982.50,0.771
3607,982.66,0.771
3608,982.84,0.771
3609,983.01,0.770
3610,983.17,0.770
3611,983.33,0.770
3612,983.50,0.770
3613,983.67,0.770
3614,983.84,0.770
3615,984.00,0.770
3616,984.17,0.770
3617,984.34,0.770
3618,984.51,0.770
3619,984.67,0.770
3620,984.83,0.770
3621,985.00,0.769
3622,985.17,0.769
3623,985.33,0.769
3624,985.50,0.769
3625,985.67,0.769
3626,985.84,0.769
3627,986.00,0.769
3628,986.17,0.769
3629,986.34,0.769
3630,986.50,0.769
3631,986.67,0.769
3632,986.84,0.769
3633,987.00,0.768
3634,987.17,0.768
3635,987.34,0.768
3636,987.50,0.768
3637,987.67,0.768
3638,987.83,0.768
3639,988.00,0.768
3640,988.17,0.768
3641,988.33,0.768
3642,988.51,0.768
3643,988.67,0.768
3644,988.83,0.768
3645,989.00,0.768
3646,989.17,0.767
3647,989.34,0.767
3648,989.51,0.767
3649,989.67,0.767
3650,989.84,0.767
3651,990.01,0.767
3652,990.17,0.767
3653,990.33,0.767
3654,990.50,0.767
3655,990.67,0.767
3656,990.83,0.767
3657,991.00,0.767
3658,991.17,0.766
3659,991.34,0.766
3660,991.50,0.766
3661,991.67,0.766
3662,991.84,0.766
3663,992.00,0.766
3664,992.17,0.766
3665,992.33,0.766
3666,992.51,0.766
3667,992.67,0.766
3668,992.83,0.766
3669,993.00,0.766
3670,993.17,0.765
3671,993.34,0.765
3672,993.50,0.765
3673,993.67,0.765
3674,993.84,0.765
3675,994.00,0.765
3676,994.17,0.765
3677,994.34,0.765
3678,994.50,0.765
3679,994.67,0.765
3680,994.84,0.765
3681,995.01,0.765
3682,995.17,0.765
3683,995.33,0.764
3684,995.50,0.764
3685,995.67,0.764
3686,995.84,0.764
3687,996.00,0.764
3688,996.17,0.764
3689,996.34,0.764
3690,996.51,0.764
3691,996.66,0.764
3692,996.84,0.764
3693,997.01,0.764
3694,997.17,0.764
3695,997.33,0.764
3696,997.50,0.763
3697,997.67,0.763
3698,997.84,0.763
3699,998.01,0.763
3700,998.17,0.763
3701,998.33,0.763
3702,998.50,0.763
3703,998.67,0.763
3704,998.84,0.763
3705,999.00,0.763
3706,999.17,0.763
3707,999.34,0.763
3708,999.50,0.762
3709,999.68,0.762
3710,999.84,0.762
3711,1000.00,0.762
3712,1000.17,0.762
3713,1000.34,0.762
3714,1000.51,0.762
3715,1000.68,0.762
3716,1000.84,0.762
3717,1001.00,0.762
3718,1001.17,0.762
3719,1001.33,0.762
3720,1001.51,0.762
3721,1001.67,0.762
3722,1001.83,0.761
3723,1002.01,0.761
3724,1002.17,0.761
3725,1002.34,0.761
3726,1002.51,0.761
3727,1002.67,0.761
3728,1002.84,0.761
3729,1003.00,0.761
3730,1003.17,0.761
3731,1003.33,0.761
3732,1003.50,0.761
3733,1003.67,0.761
3734,1003.83,0.761
3735,1004.01,0.760
3736,1004.17,0.760
3737,1004.34,0.760
3738,1004.51,0.760
3739,1004.67,0.760
3740,1004.83,0.760
3741,1005.01,0.760
3742,1005.17,0.760
3743,1005.33,0.760
3744,1005.50,0.760
3745,1005.67,0.760
3746,1005.83,0.760
3747,1006.01,0.760
3748,1006.17,0.759
3749,1006.33,0.759
3750,1006.51,0.759
3751,1006.67,0.759
3752,1006.84,0.759
3753,1007.01,0.759
3754,1007.17,0.759
3755,1007.34,0.759
3756,1007.51,0.759
3757,1007.68,0.759
3758,1007.84,0.759
3759,1008.00,0.759
3760,1008.17,0.759
3761,1008.33,0.758
3762,1008.50,0.758
3763,1008.67,0.758
3764,1008.84,0.758
3765,1009.01,0.758
3766,1009.16,0.758
3767,1009.34,0.758
3768,1009.51,0.758
3769,1009.67,0.758
3770,1009.83,0.758
3771,1010.00,0.758
3772,1010.17,0.758
3773,1010.34,0.758
3774,1010.51,0.757
3775,1010.67,0.757
3776,1010.84,0.757
3777,1011.00,0.757
3778,1011.17,0.757
3779,1011.33,0.757
3780,1011.51,0.757
3781,1011.68,0.757
3782,1011.83,0.757
3783,1012.00,0.757
3784,1012.17,0.757
3785,1012.34,0.757
3786,1012.50,0.757
3787,1012.67,0.756
3788,1012.84,0.756
3789,1013.00,0.756
3790,1013.17,0.756
3791,1013.33,0.756
3792,1013.50,0.756
3793,1013.67,0.756
3794,1013.84,0.756
3795,1014.00,0.756
3796,1014.17,0.756
3797,1014.34,0.756
3798,1014.50,0.756
3799,1014.67,0.756
3800,1014.84,0.756
3801,1015.00,0.755
3802,1015.17,0.755
3803,1015.34,0.755
3804,1015.50,0.755
3805,1015.67,0.755
3806,1015.83,0.755
3807,1016.00,0.755
3808,1016.17,0.755
3809,1016.34,0.755
3810,1016.50,0.755
3811,1016.67,0.755
3812,1016.84,0.755
3813,1017.00,0.755
3814,1017.17,0.755
3815,1017.34,0.754
3816,1017.50,0.754
3817,1017.67,0.754
3818,1017.84,0.754
3819,1018.00,0.754
3820,1018.17,0.754
3821,1018.34,0.754
3822,1018.50,0.754
3823,1018.67,0.754
3824,1018.84,0.754
3825,1019.00,0.754
3826,1019.17,0.754
3827,1019.34,0.754
3828,1019.51,0.754
3829,1019.67,0.753
3830,1019.83,0.753
3831,1020.01,0.753
3832,1020.17,0.753
3833,1020.33,0.753
3834,1020.50,0.753
3835,1020.67,0.753
3836,1020.83,0.753
3837,1021.00,0.753
3838,1021.17,0.753
3839,1021.34,0.753
3840,1021.50,0.753
3841,1021.67,0.753
3842,1021.84,0.753
3843,1022.00,0.752
3844,1022.17,0.752
3845,1022.34,0.752
3846,1022.51,0.752
3847,1022.68,0.752
3848,1022.84,0.752
3849,1023.00,0.752
3850,1023.17,0.752
3851,1023.34,0.752
3852,1023.50,0.752
3853,1023.67,0.752
3854,1023.83,0.752
3855,1024.00,0.752
3856,1024.17,0.752
3857,1024.33,0.751
3858,1024.51,0.751
3859,1024.67,0.751
3860,1024.84,0.751
3861,1025.01,0.751
3862,1025.17,0.751
3863,1025.34,0.751
3864,1025.50,0.751
3865,1025.67,0.751
3866,1025.83,0.751
3867,1026.00,0.751
3868,1026.17,0.751
3869,1026.34,0.751
3870,1026.50,0.751
3871,1026.67,0.751
3872,1026.83,0.750
3873,1027.00,0.750
3874,1027.18,0.750
3875,1027.34,0.750
3876,1027.51,0.750
3877,1027.68,0.750
3878,1027.84,0.750
3879,1028.00,0.750
3880,1028.17,0.750
3881,1028.33,0.750
3882,1028.51,0.750
3883,1028.67,0.750
3884,1028.83,0.750
3885,1029.01,0.750
3886,1029.17,0.749
3887,1029.33,0.749
3888,1029.50,0.749
3889,1029.67,0.749
3890,1029.83,0.749
3891,1030.01,0.749
3892,1030.18,0.749
3893,1030.34,0.749
3894,1030.50,0.749
3895,1030.67,0.749
3896,1030.84,0.749
3897,1031.00,0.749
3898,1031.17,0.749
3899,1031.34,0.749
3900,1031.50,0.749
3901,1031.67,0.748
3902,1031.83,0.748
3903,1032.00,0.748
3904,1032.18,0.748
3905,1032.34,0.748
3906,1032.50,0.748
3907,1032.66,0.748
3908,1032.83,0.748
3909,1033.00,0.748
3910,1033.17,0.748
3911,1033.34,0.748
3912,1033.51,0.748
3913,1033.67,0.748
3914,1033.84,0.748
3915,1034.01,0.747
3916,1034.17,0.747
3917,1034.34,0.747
3918,1034.51,0.747
3919,1034.67,0.747
3920,1034.84,0.747
3921,1035.00,0.747
3922,1035.17,0.747
3923,1035.34,0.747
3924,1035.50,0.747
3925,1035.67,0.747
3926,1035.84,0.747
3927,1036.00,0.747
3928,1036.17,0.747
3929,1036.34,0.746
3930,1036.50,0.746
3931,1036.67,0.746
3932,1036.84,0.746
3933,1037.00,0.746
3934,1037.17,0.746
3935,1037.34,0.746
3936,1037.50,0.746
3937,1037.66,0.746
3938,1037.83,0.746
3939,1038.00,0.746
3940,1038.17,0.746
3941,1038.33,0.746
3942,1038.51,0.746
3943,1038.67,0.745
3944,1038.83,0.745
3945,1039.00,0.745
3946,1039.18,0.745
3947,1039.34,0.745
3948,1039.50,0.745
3949,1039.67,0.745
3950,1039.84,0.745
3951,1040.01,0.745
3952,1040.17,0.745
3953,1040.33,0.745
3954,1040.50,0.745
3955,1040.67,0.745
3956,1040.84,0.745
3957,1041.00,0.745
3958,1041.17,0.744
3959,1041.34,0.744
3960,1041.51,0.744
3961,1041.67,0.744
3962,1041.84,0.744
3963,1042.00,0.744
3964,1042.18,0.744
3965,1042.34,0.744
3966,1042.50,0.744
3967,1042.67,0.744
3968,1042.84,0.744
3969,1043.00,0.744
3970,1043.17,0.744
3971,1043.34,0.744
3972,1043.50,0.744
3973,1043.67,0.743
3974,1043.84,0.743
3975,1044.01,0.743
3976,1044.17,0.743
3977,1044.34,0.743
3978,1044.50,0.743
3979,1044.67,0.743
3980,1044.84,0.743
3981,1045.01,0.743
3982,1045.17,0.743
3983,1045.33,0.743
3984,1045.50,0.743
3985,1045.67,0.743
3986,1045.83,0.743
3987,1046.00,0.743
3988,1046.17,0.743
3989,1046.34,0.742
3990,1046.50,0.742
3991,1046.67,0.742
3992,1046.83,0.742
3993,1047.00,0.742
3994,1047.16,0.742
3995,1047.33,0.742
3996,1047.50,0.742
3997,1047.67,0.742
3998,1047.83,0.742
3999,1048.00,0.742
4000,1048.17,0.742
4001,1048.33,0.742
4002,1048.50,0.742
4003,1048.68,0.742
4004,1048.83,0.742
4005,1049.00,0.741
4006,1049.17,0.741
4007,1049.34,0.741
4008,1049.50,0.741
4009,1049.66,0.741
4010,1049.84,0.741
4011,1050.00,0.741
4012,1050.17,0.741
4013,1050.34,0.741
4014,1050.50,0.741
4015,1050.67,0.741
4016,1050.84,0.741
4017,1051.00,0.741
4018,1051.16,0.741
4019,1051.33,0.740
4020,1051.50,0.740
4021,1051.67,0.740
4022,1051.84,0.740
4023,1052.00,0.740
4024,1052.17,0.740
4025,1052.34,0.740
4026,1052.50,0.740
4027,1052.67,0.740
4028,1052.84,0.740
4029,1053.00,0.740
4030,1053.17,0.740
4031,1053.34,0.740
4032,1053.51,0.740
4033,1053.67,0.740
4034,1053.84,0.739
4035,1054.00,0.739
4036,1054.17,0.739
4037,1054.33,0.739
4038,1054.50,0.739
4039,1054.67,0.739
4040,1054.84,0.739
4041,1055.00,0.739
4042,1055.17,0.739
4043,1055.34,0.739
4044,1055.50,0.739
4045,1055.67,0.739
4046,1055.84,0.739
4047,1056.01,0.739
4048,1056.17,0.739
4049,1056.33,0.738
4050,1056.50,0.738
4051,1056.67,0.738
4052,1056.83,0.738
4053,1057.00,0.738
4054,1057.17,0.738
4055,1057.34,0.738
4056,1057.50,0.738
4057,1057.67,0.738
4058,1057.84,0.738
4059,1058.01,0.738
4060,1058.17,0.738
4061,1058.34,0.737
4062,1058.51,0.737
4063,1058.67,0.737
4064,1058.83,0.737
4065,1059.00,0.737
4066,1059.17,0.737
4067,1059.33,0.737
4068,1059.49,0.737
4069,1059.67,0.737
4070,1059.84,0.737
4071,1060.00,0.737
4072,1060.17,0.737
4073,1060.34,0.737
4074,1060.51,0.737
4075,1060.67,0.736
4076,1060.83,0.736
4077,1061.00,0.736
4078,1061.17,0.736
4079,1061.33,0.736
4080,1061.50,0.736
4081,1061.67,0.736
4082,1061.83,0.736
4083,1062.00,0.736
4084,1062.17,0.736
4085,1062.33,0.736
4086,1062.50,0.736
4087,1062.67,0.736
4088,1062.84,0.736
4089,1063.00,0.735
4090,1063.17,0.735
4091,1063.33,0.735
4092,1063.51,0.735
4093,1063.67,0.735
4094,1063.84,0.735
4095,1064.00,0.735
4096,1064.17,0.735
4097,1064.33,0.735
4098,1064.50,0.735
4099,1064.67,0.735
4100,1064.84,0.735
4101,1065.00,0.735
4102,1065.16,0.735
4103,1065.33,0.735
4104,1065.51,0.735
4105,1065.67,0.735
4106,1065.83,0.735
4107,1066.00,0.735
4108,1066.18,0.734
4109,1066.33,0.734
4110,1066.50,0.734
4111,1066.67,0.734
4112,1066.84,0.734
4113,1067.01,0.734
4114,1067.17,0.734
4115,1067.34,0.734
4116,1067.51,0.734
4117,1067.67,0.734
4118,1067.83,0.734
4119,1068.00,0.734
4120,1068.17,0.734
4121,1068.33,0.734
4122,1068.50,0.734
4123,1068.67,0.734
4124,1068.83,0.734
4125,1069.01,0.734
4126,1069.17,0.734
4127,1069.33,0.733
4128,1069.49,0.733
4129,1069.67,0.733
4130,1069.83,0.733
4131,1070.00,0.733
4132,1070.17,0.733
4133,1070.34,0.733
4134,1070.50,0.733
4135,1070.67,0.733
4136,1070.84,0.733
4137,1071.00,0.733
4138,1071.17,0.733
4139,1071.33,0.732
4140,1071.50,0.732
4141,1071.67,0.732
4142,1071.83,0.732
4143,1072.00,0.732
4144,1072.17,0.732
4145,1072.34,0.732
4146,1072.50,0.732
4147,1072.67,0.732
4148,1072.83,0.732
4149,1073.00,0.732
4150,1073.17,0.732
4151,1073.34,0.731
4152,1073.50,0.731
4153,1073.67,0.731
4154,1073.84,0.731
4155,1074.00,0.731
4156,1074.16,0.731
4157,1074.34,0.731
4158,1074.50,0.731
4159,1074.67,0.731
4160,1074.84,0.731
4161,1075.00,0.731
4162,1075.17,0.731
4163,1075.34,0.731
4164,1075.50,0.731
4165,1075.67,0.731
4166,1075.84,0.731
4167,1076.01,0.731
4168,1076.17,0.731
4169,1076.33,0.730
4170,1076.49,0.730
4171,1076.67,0.730
4172,1076.84,0.730
4173,1077.00,0.730
4174,1077.17,0.730
4175,1077.33,0.730
4176,1077.50,0.730
4177,1077.67,0.730
4178,1077.83,0.730
4179,1077.99,0.730
4180,1078.16,0.730
4181,1078.33,0.730
4182,1078.51,0.730
4183,1078.67,0.730
4184,1078.83,0.729
4185,1079.00,0.729
4186,1079.17,0.729
4187,1079.33,0.729
4188,1079.50,0.729
4189,1079.67,0.729
4190,1079.84,0.729
4191,1080.00,0.729
4192,1080.16,0.729
4193,1080.33,0.729
4194,1080.50,0.729
4195,1080.67,0.729
4196,1080.83,0.729
4197,1080.99,0.729
4198,1081.17,0.728
4199,1081.34,0.728
4200,1081.50,0.728
4201,1081.66,0.728
4202,1081.83,0.728
4203,1082.01,0.728
4204,1082.18,0.728
4205,1082.33,0.728
4206,1082.50,0.728
4207,1082.66,0.728
4208,1082.84,0.728
4209,1083.01,0.728
4210,1083.16,0.728
4211,1083.33,0.728
4212,1083.50,0.727
4213,1083.66,0.727
4214,1083.83,0.727
4215,1084.00,0.727
4216,1084.17,0.727
4217,1084.34,0.727
4218,1084.51,0.727
4219,1084.67,0.727
4220,1084.83,0.727
4221,1085.00,0.727
4222,1085.17,0.727
4223,1085.33,0.727
4224,1085.50,0.727
4225,1085.67,0.727
4226,1085.83,0.727
4227,1086.00,0.726
4228,1086.17,0.726
4229,1086.33,0.726
4230,1086.50,0.726
4231,1086.66,0.726
4232,1086.83,0.726
4233,1087.00,0.726
4234,1087.17,0.726
4235,1087.34,0.726
4236,1087.50,0.726
4237,1087.67,0.726
4238,1087.84,0.726
4239,1088.00,0.726
4240,1088.16,0.726
4241,1088.34,0.726
4242,1088.51,0.726
4243,1088.67,0.726
4244,1088.83,0.726
4245,1088.99,0.725
4246,1089.17,0.725
4247,1089.33,0.725
4248,1089.50,0.725
4249,1089.67,0.725
4250,1089.83,0.725
4251,1090.01,0.725
4252,1090.17,0.725
4253,1090.34,0.725
4254,1090.51,0.725
4255,1090.67,0.725
4256,1090.83,0.725
4257,1090.99,0.725
4258,1091.17,0.725
4259,1091.34,0.725
4260,1091.50,0.724
4261,1091.67,0.724
4262,1091.84,0.724
4263,1092.00,0.724
4264,1092.16,0.724
4265,1092.34,0.724
4266,1092.51,0.724
4267,1092.67,0.724
4268,1092.83,0.724
4269,1093.00,0.724
4270,1093.17,0.724
4271,1093.34,0.724
4272,1093.49,0.724
4273,1093.67,0.724
4274,1093.84,0.724
4275,1094.00,0.724
4276,1094.17,0.723
4277,1094.34,0.723
4278,1094.50,0.723
4279,1094.66,0.723
4280,1094.83,0.723
4281,1095.00,0.723
4282,1095.16,0.723
4283,1095.34,0.723
4284,1095.51,0.723
4285,1095.66,0.723
4286,1095.83,0.723
4287,1096.01,0.723
4288,1096.17,0.723
4289,1096.33,0.723
4290,1096.50,0.723
4291,1096.67,0.723
4292,1096.84,0.722
4293,1097.01,0.722
4294,1097.17,0.722
4295,1097.33,0.722
4296,1097.49,0.722
4297,1097.67,0.722
4298,1097.83,0.722
4299,1098.00,0.722
4300,1098.17,0.722
4301,1098.33,0.722
4302,1098.50,0.722
4303,1098.68,0.722
4304,1098.84,0.722
4305,1099.00,0.722
4306,1099.17,0.722
4307,1099.33,0.721
4308,1099.50,0.721
4309,1099.67,0.721
4310,1099.83,0.721
4311,1100.00,0.721
4312,1100.17,0.721
4313,1100.33,0.721
4314,1100.50,0.721
4315,1100.66,0.721
4316,1100.83,0.721
4317,1101.00,0.721
4318,1101.17,0.721
4319,1101.33,0.721
4320,1101.49,0.721
4321,1101.67,0.721
4322,1101.83,0.721
4323,1102.00,0.721
4324,1102.17,0.721
4325,1102.34,0.721
4326,1102.50,0.720
4327,1102.67,0.720
4328,1102.84,0.720
4329,1103.00,0.720
4330,1103.17,0.720
4331,1103.33,0.720
4332,1103.50,0.720
4333,1103.67,0.720
4334,1103.84,0.720
4335,1104.00,0.720
4336,1104.17,0.720
4337,1104.34,0.720
4338,1104.50,0.720
4339,1104.66,0.720
4340,1104.83,0.720
4341,1105.00,0.719
4342,1105.17,0.719
4343,1105.33,0.719
4344,1105.49,0.719
4345,1105.66,0.719
4346,1105.84,0.719
4347,1106.00,0.719
4348,1106.16,0.719
4349,1106.33,0.719
4350,1106.50,0.719
4351,1106.66,0.719
4352,1106.83,0.719
4353,1107.00,0.719
4354,1107.16,0.718
4355,1107.33,0.718
4356,1107.50,0.718
4357,1107.67,0.718
4358,1107.83,0.718
4359,1108.00,0.718
4360,1108.17,0.718
4361,1108.34,0.718
4362,1108.50,0.718
4363,1108.66,0.718
4364,1108.83,0.718
4365,1108.99,0.718
4366,1109.17,0.718
4367,1109.33,0.718
4368,1109.50,0.718
4369,1109.67,0.717
4370,1109.83,0.717
4371,1109.99,0.717
4372,1110.17,0.717
4373,1110.34,0.717
4374,1110.50,0.717
4375,1110.67,0.717
4376,1110.84,0.717
4377,1111.00,0.717
4378,1111.16,0.717
4379,1111.33,0.717
4380,1111.50,0.717
4381,1111.66,0.717
4382,1111.84,0.717
4383,1112.00,0.717
4384,1112.16,0.717
4385,1112.33,0.717
4386,1112.50,0.716
4387,1112.67,0.716
4388,1112.84,0.716
4389,1113.00,0.716
4390,1113.16,0.716
4391,1113.33,0.716
4392,1113.51,0.716
4393,1113.67,0.716
4394,1113.83,0.716
4395,1114.00,0.716
4396,1114.17,0.716
4397,1114.33,0.716
4398,1114.50,0.716
4399,1114.67,0.716
4400,1114.83,0.716
4401,1115.00,0.716
4402,1115.16,0.715
4403,1115.34,0.715
4404,1115.50,0.715
4405,1115.66,0.715
4406,1115.84,0.715
4407,1116.00,0.715
4408,1116.16,0.715
4409,1116.33,0.715
4410,1116.50,0.715
4411,1116.67,0.715
4412,1116.84,0.715
4413,1117.00,0.715
4414,1117.16,0.715
4415,1117.33,0.715
4416,1117.50,0.714
4417,1117.67,0.714
4418,1117.83,0.714
4419,1118.00,0.714
4420,1118.17,0.714
4421,1118.34,0.714
4422,1118.50,0.714
4423,1118.66,0.714
4424,1118.83,0.714
4425,1119.00,0.714
4426,1119.16,0.714
4427,1119.33,0.714
4428,1119.50,0.714
4429,1119.67,0.713
4430,1119.83,0.713
4431,1120.00,0.713
4432,1120.17,0.713
4433,1120.33,0.713
4434,1120.49,0.713
4435,1120.67,0.713
4436,1120.83,0.713
4437,1120.99,0.713
4438,1121.17,0.713
4439,1121.33,0.713
4440,1121.50,0.713
4441,1121.67,0.713
4442,1121.83,0.713
4443,1122.00,0.713
4444,1122.17,0.713
4445,1122.34,0.713
4446,1122.51,0.713
4447,1122.67,0.713
4448,1122.83,0.713
4449,1122.99,0.713
4450,1123.17,0.712
4451,1123.33,0.712
4452,1123.49,0.712
4453,1123.67,0.712
4454,1123.84,0.712
4455,1124.00,0.712
4456,1124.16,0.712
4457,1124.33,0.712
4458,1124.49,0.712
4459,1124.67,0.712
4460,1124.83,0.712
4461,1124.99,0.712
4462,1125.17,0.712
4463,1125.33,0.712
4464,1125.50,0.712
4465,1125.67,0.712
4466,1125.83,0.711
4467,1126.00,0.711
4468,1126.16,0.711
4469,1126.33,0.711
4470,1126.50,0.711
4471,1126.67,0.711
4472,1126.83,0.711
4473,1127.00,0.711
4474,1127.16,0.711
4475,1127.33,0.711
4476,1127.51,0.711
4477,1127.67,0.711
4478,1127.83,0.711
4479,1128.00,0.710
4480,1128.16,0.710
4481,1128.33,0.710
4482,1128.50,0.710
4483,1128.67,0.710
4484,1128.83,0.710
4485,1129.00,0.710
4486,1129.17,0.710
4487,1129.33,0.710
4488,1129.50,0.710
4489,1129.67,0.710
4490,1129.83,0.710
4491,1129.99,0.710
4492,1130.16,0.709
4493,1130.33,0.709
4494,1130.50,0.709
4495,1130.66,0.709
4496,1130.84,0.709
4497,1130.99,0.709
4498,1131.16,0.709
4499,1131.33,0.709
4500,1131.50,0.709
4501,1131.67,0.709
4502,1131.84,0.709
4503,1132.00,0.709
4504,1132.16,0.709
4505,1132.32,0.708
4506,1132.50,0.708
4507,1132.67,0.708
4508,1132.83,0.708
4509,1132.99,0.708
4510,1133.16,0.708
4511,1133.33,0.708
4512,1133.50,0.708
4513,1133.66,0.708
4514,1133.83,0.708
4515,1134.00,0.708
4516,1134.17,0.708
4517,1134.33,0.708
4518,1134.49,0.708
4519,1134.66,0.708
4520,1134.84,0.707
4521,1135.00,0.707
4522,1135.16,0.707
4523,1135.33,0.707
4524,1135.50,0.707
4525,1135.66,0.707
4526,1135.84,0.707
4527,1136.00,0.707
4528,1136.16,0.707
4529,1136.34,0.707
4530,1136.50,0.707
4531,1136.66,0.707
4532,1136.82,0.707
4533,1137.00,0.707
4534,1137.17,0.707
4535,1137.33,0.706
4536,1137.50,0.706
4537,1137.67,0.706
4538,1137.83,0.706
4539,1138.00,0.706
4540,1138.17,0.706
4541,1138.33,0.706
4542,1138.51,0.706
4543,1138.66,0.706
4544,1138.83,0.706
4545,1138.99,0.706
4546,1139.17,0.706
4547,1139.34,0.706
4548,1139.49,0.706
4549,1139.66,0.706
4550,1139.84,0.706
4551,1140.00,0.705
4552,1140.16,0.705
4553,1140.33,0.705
4554,1140.50,0.705
4555,1140.67,0.705
4556,1140.84,0.705
4557,1141.00,0.705
4558,1141.16,0.705
4559,1141.33,0.705
4560,1141.50,0.705
4561,1141.66,0.705
4562,1141.84,0.705
4563,1142.00,0.705
4564,1142.16,0.705
4565,1142.33,0.705
4566,1142.49,0.704
4567,1142.67,0.704
4568,1142.84,0.704
4569,1143.00,0.704
4570,1143.16,0.704
4571,1143.34,0.704
4572,1143.50,0.704
4573,1143.66,0.704
4574,1143.83,0.704
4575,1144.00,0.704
4576,1144.17,0.704
4577,1144.34,0.704
4578,1144.50,0.704
4579,1144.66,0.703
4580,1144.83,0.703
4581,1145.00,0.703
4582,1145.17,0.703
4583,1145.33,0.703
4584,1145.50,0.703
4585,1145.67,0.703
4586,1145.84,0.703
4587,1146.00,0.703
4588,1146.16,0.703
4589,1146.33,0.703
4590,1146.49,0.703
4591,1146.66,0.703
4592,1146.84,0.702
4593,1146.99,0.702
4594,1147.16,0.702
4595,1147.33,0.702
4596,1147.50,0.702
4597,1147.67,0.702
4598,1147.84,0.702
4599,1147.99,0.702
4600,1148.16,0.702
4601,1148.33,0.702
4602,1148.49,0.702
4603,1148.67,0.702
4604,1148.83,0.702
4605,1149.00,0.701
4606,1149.17,0.701
4607,1149.34,0.701
4608,1149.50,0.701
4609,1149.67,0.701
4610,1149.83,0.701
4611,1149.99,0.701
4612,1150.17,0.701
4613,1150.33,0.701
4614,1150.49,0.701
4615,1150.67,0.701
4616,1150.83,0.701
4617,1150.99,0.701
4618,1151.16,0.701
4619,1151.33,0.700
4620,1151.50,0.700
4621,1151.66,0.700
4622,1151.83,0.700
4623,1152.00,0.700
4624,1152.16,0.700
4625,1152.33,0.700
4626,1152.51,0.700
4627,1152.66,0.700
4628,1152.83,0.700
4629,1152.99,0.700
4630,1153.16,0.700
4631,1153.32,0.700
4632,1153.50,0.699
4633,1153.67,0.699
4634,1153.83,0.699
4635,1153.99,0.699
4636,1154.16,0.699
4637,1154.34,0.699
4638,1154.50,0.699
4639,1154.67,0.699
4640,1154.83,0.699
4641,1154.99,0.699
4642,1155.17,0.699
4643,1155.33,0.699
4644,1155.49,0.699
4645,1155.66,0.699
4646,1155.83,0.699
4647,1156.00,0.699
4648,1156.17,0.698
4649,1156.33,0.698
4650,1156.50,0.698
4651,1156.66,0.698
4652,1156.83,0.698
4653,1157.00,0.698
4654,1157.16,0.698
4655,1157.33,0.698
4656,1157.50,0.698
4657,1157.67,0.698
4658,1157.83,0.698
4659,1157.99,0.698
4660,1158.16,0.698
4661,1158.32,0.698
4662,1158.49,0.697
4663,1158.67,0.697
4664,1158.83,0.697
4665,1158.99,0.697
4666,1159.16,0.697
4667,1159.33,0.697
4668,1159.49,0.697
4669,1159.66,0.697
4670,1159.84,0.697
4671,1160.00,0.697
4672,1160.16,0.697
4673,1160.33,0.697
4674,1160.51,0.697
4675,1160.66,0.696
4676,1160.83,0.696
4677,1161.00,0.696
4678,1161.17,0.696
4679,1161.33,0.696
4680,1161.49,0.696
4681,1161.67,0.696
4682,1161.83,0.696
4683,1162.00,0.696
4684,1162.17,0.696
4685,1162.33,0.696
4686,1162.49,0.696
4687,1162.66,0.696
4688,1162.82,0.696
4689,1163.00,0.695
4690,1163.16,0.695
4691,1163.33,0.695
4692,1163.50,0.695
4693,1163.66,0.695
4694,1163.83,0.695
4695,1164.00,0.695
4696,1164.17,0.695
4697,1164.33,0.695
4698,1164.50,0.695
4699,1164.66,0.695
4700,1164.83,0.695
4701,1165.00,0.694
4702,1165.16,0.694
4703,1165.33,0.694
4704,1165.50,0.694
4705,1165.67,0.694
4706,1165.83,0.694
4707,1165.99,0.694
4708,1166.16,0.694
4709,1166.33,0.694
4710,1166.50,0.694
4711,1166.66,0.694
4712,1166.82,0.693
4713,1167.00,0.693
4714,1167.17,0.693
4715,1167.33,0.693
4716,1167.49,0.693
4717,1167.66,0.693
4718,1167.84,0.693
4719,1167.99,0.693
4720,1168.15,0.693
4721,1168.32,0.693
4722,1168.50,0.693
4723,1168.67,0.693
4724,1168.83,0.692
4725,1169.00,0.692
4726,1169.16,0.692
4727,1169.33,0.692
4728,1169.50,0.692
4729,1169.66,0.692
4730,1169.83,0.692
4731,1170.00,0.692
4732,1170.16,0.692
4733,1170.33,0.692
4734,1170.49,0.692
4735,1170.65,0.691
4736,1170.83,0.691
4737,1171.00,0.691
4738,1171.15,0.691
4739,1171.32,0.691
