Time (s),Temperature (K),Mass (mg)
0,383,5.006
13,383.5,5.007
17,384,5.007
20,384.5,5.007
24,385,5.008
27,385.5,5.008
31,386,5.008
34,386.5,5.008
38,387,5.008
41,387.5,5.008
44,388,5.008
47,388.5,5.008
51,389,5.008
54,389.5,5.008
57,390,5.008
60,390.5,5.008
63,391,5.008
66,391.5,5.008
69,392,5.008
72,392.5,5.008
75,393,5.008
78,393.5,5.008
81,394,5.007
85,394.5,5.007
88,395,5.007
91,395.5,5.007
94,396,5.007
97,396.5,5.007
100,397,5.007
103,397.5,5.007
106,398,5.007
109,398.5,5.007
112,399,5.007
115,399.5,5.007
118,400,5.007
121,400.5,5.007
124,401,5.007
127,401.5,5.007
130,402,5.007
133,402.5,5.007
136,403,5.007
139,403.5,5.007
142,404,5.007
145,404.5,5.006
148,405,5.006
151,405.5,5.006
154,406,5.006
157,406.5,5.006
159,407,5.006
162,407.5,5.006
165,408,5.006
168,408.5,5.006
171,409,5.006
174,409.5,5.006
177,410,5.006
180,410.5,5.006
183,411,5.005
186,411.5,5.005
189,412,5.005
192,412.5,5.005
195,413,5.005
198,413.5,5.005
201,414,5.005
204,414.5,5.005
207,415,5.005
210,415.5,5.005
213,416,5.004
216,416.5,5.004
219,417,5.004
222,417.5,5.004
225,418,5.004
228,418.5,5.004
231,419,5.004
234,419.5,5.003
237,420,5.003
240,420.5,5.003
243,421,5.003
246,421.5,5.003
249,422,5.003
252,422.5,5.003
255,423,5.002
258,423.5,5.002
261,424,5.002
264,424.5,5.002
267,425,5.002
270,425.5,5.001
273,426,5.001
276,426.5,5.001
279,427,5.001
282,427.5,5.001
285,428,5
288,428.5,5
291,429,5
294,429.5,5
297,430,4.999
300,430.5,4.999
303,431,4.999
306,431.5,4.999
309,432,4.998
312,432.5,4.998
315,433,4.998
318,433.5,4.998
321,434,4.997
324,434.5,4.997
326,435,4.997
330,435.5,4.997
332,436,4.996
335,436.5,4.996
339,437,4.996
341,437.5,4.995
344,438,4.995
347,438.5,4.995
350,439,4.994
353,439.5,4.994
356,440,4.994
359,440.5,4.994
362,441,4.993
365,441.5,4.993
368,442,4.992
371,442.5,4.992
374,443,4.992
377,443.5,4.991
380,444,4.991
383,444.5,4.991
386,445,4.99
389,445.5,4.99
392,446,4.989
395,446.5,4.989
398,447,4.989
401,447.5,4.988
404,448,4.988
407,448.5,4.987
410,449,4.987
413,449.5,4.986
416,450,4.986
419,450.5,4.985
422,451,4.985
425,451.5,4.984
428,452,4.984
431,452.5,4.983
434,453,4.983
437,453.5,4.982
440,454,4.982
443,454.5,4.981
446,455,4.981
449,455.5,4.98
452,456,4.979
455,456.5,4.979
458,457,4.978
461,457.5,4.978
464,458,4.977
467,458.5,4.976
470,459,4.976
473,459.5,4.975
476,460,4.974
479,460.5,4.974
482,461,4.973
485,461.5,4.972
488,462,4.971
491,462.5,4.971
494,463,4.97
497,463.5,4.969
500,464,4.969
503,464.5,4.968
506,465,4.967
509,465.5,4.966
512,466,4.965
515,466.5,4.965
518,467,4.964
521,467.5,4.963
524,468,4.962
527,468.5,4.961
530,469,4.96
533,469.5,4.96
536,470,4.959
539,470.5,4.958
542,471,4.957
545,471.5,4.956
548,472,4.955
551,472.5,4.954
554,473,4.953
557,473.5,4.952
560,474,4.951
563,474.5,4.95
566,475,4.949
569,475.5,4.948
572,476,4.947
575,476.5,4.946
578,477,4.945
580,477.5,4.944
583,478,4.943
586,478.5,4.942
589,479,4.941
592,479.5,4.94
595,480,4.939
598,480.5,4.938
601,481,4.937
604,481.5,4.935
607,482,4.934
610,482.5,4.933
613,483,4.932
616,483.5,4.931
619,484,4.929
622,484.5,4.928
625,485,4.927
628,485.5,4.926
631,486,4.924
634,486.5,4.923
637,487,4.922
640,487.5,4.92
643,488,4.919
646,488.5,4.917
649,489,4.915
652,489.5,4.914
655,490,4.912
658,490.5,4.91
661,491,4.909
664,491.5,4.907
667,492,4.905
670,492.5,4.904
673,493,4.902
676,493.5,4.901
679,494,4.899
682,494.5,4.897
685,495,4.896
688,495.5,4.894
691,496,4.893
694,496.5,4.891
697,497,4.889
700,497.5,4.888
703,498,4.886
706,498.5,4.884
709,499,4.882
712,499.5,4.881
715,500,4.879
718,500.5,4.877
721,501,4.875
724,501.5,4.873
727,502,4.871
730,502.5,4.869
733,503,4.867
736,503.5,4.865
739,504,4.863
742,504.5,4.861
745,505,4.859
748,505.5,4.857
751,506,4.855
754,506.5,4.853
757,507,4.851
760,507.5,4.848
763,508,4.846
766,508.5,4.844
769,509,4.841
772,509.5,4.838
775,510,4.836
778,510.5,4.834
781,511,4.832
784,511.5,4.83
787,512,4.827
790,512.5,4.824
793,513,4.821
796,513.5,4.818
799,514,4.815
802,514.5,4.813
805,515,4.811
808,515.5,4.809
811,516,4.806
814,516.5,4.804
817,517,4.801
820,517.5,4.798
823,518,4.795
825,518.5,4.793
829,519,4.789
832,519.5,4.786
834,520,4.784
837,520.5,4.781
840,521,4.778
843,521.5,4.774
846,522,4.771
849,522.5,4.767
852,523,4.764
855,523.5,4.76
858,524,4.757
861,524.5,4.753
864,525,4.75
867,525.5,4.746
870,526,4.742
873,526.5,4.739
876,527,4.734
879,527.5,4.731
882,528,4.727
885,528.5,4.723
888,529,4.719
891,529.5,4.715
894,530,4.71
897,530.5,4.706
900,531,4.702
903,531.5,4.697
906,532,4.692
909,532.5,4.687
912,533,4.683
915,533.5,4.678
918,534,4.673
921,534.5,4.669
924,535,4.664
927,535.5,4.659
930,536,4.654
933,536.5,4.649
936,537,4.644
939,537.5,4.639
942,538,4.634
945,538.5,4.629
948,539,4.624
951,539.5,4.618
954,540,4.613
957,540.5,4.607
960,541,4.602
963,541.5,4.596
966,542,4.591
969,542.5,4.585
972,543,4.579
975,543.5,4.574
978,544,4.568
981,544.5,4.563
984,545,4.557
987,545.5,4.551
990,546,4.545
993,546.5,4.539
996,547,4.533
999,547.5,4.526
1002,548,4.52
1005,548.5,4.513
1008,549,4.507
1011,549.5,4.5
1014,550,4.494
1017,550.5,4.487
1020,551,4.481
1023,551.5,4.474
1026,552,4.467
1029,552.5,4.46
1032,553,4.454
1035,553.5,4.447
1038,554,4.44
1041,554.5,4.433
1044,555,4.426
1047,555.5,4.419
1050,556,4.411
1053,556.5,4.404
1056,557,4.397
1059,557.5,4.389
1062,558,4.382
1065,558.5,4.375
1068,559,4.367
1071,559.5,4.36
1074,560,4.352
1077,560.5,4.344
1080,561,4.336
1083,561.5,4.329
1086,562,4.321
1089,562.5,4.313
1092,563,4.305
1094,563.5,4.299
1097,564,4.291
1100,564.5,4.283
1103,565,4.275
1106,565.5,4.266
1109,566,4.258
1112,566.5,4.249
1115,567,4.241
1118,567.5,4.232
1121,568,4.223
1124,568.5,4.215
1127,569,4.206
1130,569.5,4.197
1133,570,4.188
1136,570.5,4.179
1139,571,4.17
1142,571.5,4.16
1145,572,4.151
1148,572.5,4.142
1151,573,4.132
1154,573.5,4.123
1157,574,4.113
1160,574.5,4.103
1163,575,4.093
1166,575.5,4.083
1169,576,4.073
1172,576.5,4.063
1175,577,4.053
1178,577.5,4.042
1181,578,4.032
1184,578.5,4.021
1187,579,4.011
1190,579.5,4
1193,580,3.989
1196,580.5,3.978
1199,581,3.966
1202,581.5,3.955
1205,582,3.943
1208,582.5,3.932
1211,583,3.92
1214,583.5,3.908
1217,584,3.896
1220,584.5,3.884
1223,585,3.871
1226,585.5,3.859
1229,586,3.846
1232,586.5,3.833
1235,587,3.82
1238,587.5,3.807
1241,588,3.793
1244,588.5,3.78
1247,589,3.766
1250,589.5,3.752
1253,590,3.738
1256,590.5,3.724
1259,591,3.709
1262,591.5,3.694
1265,592,3.68
1268,592.5,3.664
1271,593,3.649
1274,593.5,3.633
1277,594,3.618
1280,594.5,3.602
1283,595,3.585
1286,595.5,3.569
1289,596,3.552
1292,596.5,3.535
1295,597,3.518
1298,597.5,3.501
1301,598,3.483
1304,598.5,3.465
1307,599,3.447
1310,599.5,3.428
1313,600,3.409
1316,600.5,3.39
1319,601,3.371
1322,601.5,3.351
1325,602,3.331
1328,602.5,3.31
1331,603,3.289
1334,603.5,3.268
1337,604,3.247
1340,604.5,3.225
1343,605,3.202
1346,605.5,3.179
1349,606,3.156
1352,606.5,3.132
1354,607,3.116
1357,607.5,3.091
1360,608,3.066
1363,608.5,3.04
1366,609,3.013
1369,609.5,2.986
1372,610,2.958
1375,610.5,2.929
1378,611,2.899
1381,611.5,2.869
1384,612,2.838
1387,612.5,2.806
1390,613,2.773
1393,613.5,2.739
1396,614,2.704
1399,614.5,2.668
1402,615,2.632
1405,615.5,2.594
1408,616,2.556
1411,616.5,2.516
1414,617,2.477
1417,617.5,2.437
1420,618,2.396
1423,618.5,2.356
1426,619,2.315
1429,619.5,2.275
1432,620,2.235
1435,620.5,2.196
1438,621,2.157
1441,621.5,2.12
1444,622,2.084
1447,622.5,2.049
1450,623,2.016
1453,623.5,1.985
1456,624,1.955
1459,624.5,1.928
1462,625,1.902
1465,625.5,1.877
1468,626,1.855
1471,626.5,1.834
1474,627,1.814
1477,627.5,1.796
1480,628,1.779
1483,628.5,1.763
1486,629,1.748
1489,629.5,1.734
1492,630,1.72
1495,630.5,1.708
1498,631,1.696
1501,631.5,1.685
1504,632,1.674
1507,632.5,1.664
1510,633,1.654
1513,633.5,1.644
1516,634,1.635
1519,634.5,1.627
1522,635,1.619
1525,635.5,1.611
1528,636,1.603
1531,636.5,1.595
1534,637,1.588
1537,637.5,1.581
1540,638,1.573
1543,638.5,1.566
1546,639,1.56
1549,639.5,1.553
1552,640,1.546
1555,640.5,1.54
1558,641,1.534
1561,641.5,1.527
1564,642,1.521
1567,642.5,1.515
1570,643,1.509
1573,643.5,1.503
1576,644,1.498
1579,644.5,1.492
1582,645,1.486
1585,645.5,1.481
1588,646,1.475
1591,646.5,1.47
1594,647,1.465
1597,647.5,1.459
1600,648,1.454
1603,648.5,1.449
1606,649,1.444
1609,649.5,1.439
1612,650,1.434
1615,650.5,1.429
1617,651,1.425
1620,651.5,1.42
1623,652,1.415
1626,652.5,1.411
1629,653,1.406
1632,653.5,1.401
1635,654,1.396
1638,654.5,1.392
1641,655,1.387
1644,655.5,1.383
1647,656,1.378
1650,656.5,1.373
1653,657,1.369
1656,657.5,1.364
1659,658,1.359
1662,658.5,1.355
1665,659,1.351
1668,659.5,1.346
1671,660,1.342
1674,660.5,1.337
1677,661,1.333
1680,661.5,1.328
1683,662,1.324
1686,662.5,1.32
1689,663,1.315
1692,663.5,1.311
1695,664,1.307
1698,664.5,1.302
1701,665,1.298
1704,665.5,1.294
1707,666,1.29
1710,666.5,1.286
1713,667,1.282
1716,667.5,1.277
1719,668,1.273
1722,668.5,1.268
1725,669,1.264
1728,669.5,1.26
1731,670,1.256
1734,670.5,1.252
1737,671,1.248
1740,671.5,1.244
1743,672,1.24
1746,672.5,1.236
1749,673,1.232
1752,673.5,1.228
1755,674,1.224
1758,674.5,1.219
1761,675,1.215
1764,675.5,1.211
1767,676,1.207
1770,676.5,1.203
1773,677,1.199
1776,677.5,1.194
1779,678,1.19
1782,678.5,1.186
1785,679,1.182
1788,679.5,1.178
1791,680,1.173
1794,680.5,1.169
1797,681,1.164
1800,681.5,1.16
1803,682,1.156
1806,682.5,1.152
1809,683,1.148
1812,683.5,1.144
1815,684,1.14
1818,684.5,1.136
1821,685,1.131
1824,685.5,1.127
1827,686,1.123
1830,686.5,1.119
1833,687,1.115
1836,687.5,1.111
1839,688,1.106
1842,688.5,1.102
1845,689,1.098
1848,689.5,1.094
1851,690,1.089
1854,690.5,1.085
1857,691,1.081
1860,691.5,1.077
1863,692,1.072
1866,692.5,1.068
1869,693,1.064
1871,693.5,1.061
1874,694,1.057
1877,694.5,1.052
1880,695,1.048
1883,695.5,1.044
1886,696,1.039
1889,696.5,1.035
1892,697,1.03
1895,697.5,1.026
1898,698,1.021
1901,698.5,1.016
1904,699,1.012
1907,699.5,1.008
1910,700,1.004
1913,700.5,0.999
1916,701,0.994
1919,701.5,0.99
1922,702,0.985
1925,702.5,0.981
1928,703,0.976
1931,703.5,0.972
1934,704,0.967
1937,704.5,0.962
1940,705,0.957
1943,705.5,0.952
1946,706,0.948
1949,706.5,0.943
1952,707,0.938
1955,707.5,0.934
1958,708,0.929
1961,708.5,0.924
1964,709,0.919
1967,709.5,0.915
1970,710,0.91
1973,710.5,0.905
1976,711,0.9
1979,711.5,0.895
1982,712,0.89
1985,712.5,0.885
1988,713,0.88
1991,713.5,0.875
1994,714,0.87
1997,714.5,0.865
2000,715,0.859
2003,715.5,0.854
2006,716,0.849
2009,716.5,0.843
2012,717,0.838
2015,717.5,0.832
2018,718,0.827
2021,718.5,0.821
2024,719,0.816
2027,719.5,0.81
2030,720,0.804
2033,720.5,0.799
2036,721,0.793
2039,721.5,0.787
2042,722,0.781
2045,722.5,0.775
2048,723,0.769
2051,723.5,0.763
2054,724,0.757
2057,724.5,0.751
2060,725,0.745
2063,725.5,0.739
2066,726,0.733
2069,726.5,0.727
2072,727,0.721
2075,727.5,0.715
2078,728,0.708
2081,728.5,0.702
2084,729,0.696
2087,729.5,0.689
2090,730,0.683
2093,730.5,0.676
2096,731,0.67
2099,731.5,0.664
2102,732,0.657
2105,732.5,0.651
2108,733,0.644
2111,733.5,0.638
2114,734,0.631
2117,734.5,0.625
2120,735,0.618
2123,735.5,0.611
2126,736,0.605
2129,736.5,0.598
2132,737,0.591
2135,737.5,0.585
2138,738,0.578
2141,738.5,0.571
2144,739,0.564
2147,739.5,0.557
2150,740,0.551
2153,740.5,0.544
2156,741,0.537
2159,741.5,0.531
2162,742,0.524
2165,742.5,0.517
2168,743,0.51
2171,743.5,0.503
2174,744,0.497
2177,744.5,0.49
2180,745,0.483
2183,745.5,0.476
2186,746,0.469
2189,746.5,0.462
2192,747,0.454
2195,747.5,0.447
2198,748,0.44
2201,748.5,0.433
2204,749,0.425
2207,749.5,0.418
2210,750,0.411
2213,750.5,0.403
2216,751,0.396
2219,751.5,0.389
2222,752,0.381
2225,752.5,0.373
2228,753,0.366
2231,753.5,0.358
2234,754,0.35
2237,754.5,0.342
2240,755,0.334
2243,755.5,0.326
2246,756,0.318
2249,756.5,0.309
2252,757,0.301
2255,757.5,0.293
2258,758,0.284
2261,758.5,0.276
2264,759,0.267
2267,759.5,0.258
2270,760,0.249
2273,760.5,0.24
2276,761,0.231
2279,761.5,0.221
2282,762,0.212
2285,762.5,0.201
2288,763,0.192
2291,763.5,0.182
2293,764,0.174
2297,764.5,0.028
2301,765,0.024
2304,765.5,0.025
2307,766,0.025
2309,766.5,0.024
2313,767,0.023
2316,767.5,0.022
2318,768,0.022
2321,768.5,0.022
2324,769,0.021
2327,769.5,0.021
2330,770,0.021
2333,770.5,0.021
2336,771,0.02
2339,771.5,0.02
2342,772,0.02
2345,772.5,0.02
2348,773,0.02
2351,773.5,0.019
2354,774,0.019
2357,774.5,0.019
2360,775,0.019
2363,775.5,0.019
2366,776,0.019
2369,776.5,0.019
2372,777,0.018
2375,777.5,0.018
2378,778,0.018
2381,778.5,0.018
2384,779,0.018
2387,779.5,0.018
2390,780,0.018
2393,780.5,0.018
2396,781,0.018
2399,781.5,0.018
2402,782,0.018
2405,782.5,0.018
2408,783,0.018
2411,783.5,0.017
2414,784,0.017
2417,784.5,0.017
2420,785,0.017
2423,785.5,0.017
2426,786,0.017
2429,786.5,0.017
2432,787,0.017
2435,787.5,0.017
2438,788,0.017
2441,788.5,0.017
2444,789,0.017
2447,789.5,0.017
2450,790,0.017
2453,790.5,0.017
2456,791,0.017
2459,791.5,0.017
2462,792,0.017
2465,792.5,0.017
2468,793,0.017
2471,793.5,0.017
2474,794,0.017
2477,794.5,0.017
2480,795,0.017
2483,795.5,0.017
2486,796,0.017
2489,796.5,0.017
2492,797,0.017
2495,797.5,0.017
2498,798,0.017
2501,798.5,0.017
2504,799,0.017
2507,799.5,0.017
2510,800,0.017
2513,800.5,0.017
2516,801,0.017
2519,801.5,0.017
2522,802,0.017
2525,802.5,0.017
2528,803,0.017
2531,803.5,0.017
2534,804,0.017
2537,804.5,0.017
2540,805,0.017
2543,805.5,0.017
2546,806,0.017
2549,806.5,0.017
2552,807,0.017
2555,807.5,0.017
2558,808,0.017
2561,808.5,0.017
2564,809,0.017
2567,809.5,0.017
2570,810,0.017
2573,810.5,0.017
2576,811,0.017
2579,811.5,0.017
2582,812,0.017
2585,812.5,0.017
2588,813,0.017
2591,813.5,0.017
2594,814,0.017
2597,814.5,0.017
2600,815,0.017
2603,815.5,0.017
2606,816,0.017
2609,816.5,0.017
2612,817,0.017
2615,817.5,0.017
2618,818,0.017
2621,818.5,0.017
2624,819,0.017
2627,819.5,0.017
2630,820,0.017
2633,820.5,0.017
2636,821,0.017
2639,821.5,0.017
2642,822,0.017
2645,822.5,0.016
2648,823,0.016
2651,823.5,0.016
2654,824,0.016
2657,824.5,0.016
2660,825,0.016
2663,825.5,0.016
2666,826,0.016
2669,826.5,0.016
2672,827,0.016
2675,827.5,0.016
2678,828,0.016
2681,828.5,0.016
2684,829,0.016
2687,829.5,0.016
2690,830,0.016
2693,830.5,0.016
2696,831,0.016
2699,831.5,0.016
2702,832,0.016
2705,832.5,0.016
2708,833,0.016
2711,833.5,0.016
2714,834,0.016
2717,834.5,0.016
2720,835,0.016
2723,835.5,0.016
2726,836,0.016
2729,836.5,0.016
2732,837,0.016
2735,837.5,0.016
2738,838,0.016
2741,838.5,0.016
2744,839,0.016
2747,839.5,0.016
2750,840,0.016
2753,840.5,0.016
2756,841,0.016
2759,841.5,0.016
2762,842,0.016
2765,842.5,0.016
2768,843,0.016
2771,843.5,0.016
2774,844,0.016
2777,844.5,0.016
2780,845,0.016
2783,845.5,0.016
2786,846,0.016
2789,846.5,0.016
2792,847,0.016
2795,847.5,0.016
2798,848,0.016
2801,848.5,0.016
2804,849,0.016
2807,849.5,0.016
2810,850,0.016
2813,850.5,0.016
2816,851,0.016
2819,851.5,0.016
2822,852,0.016
2825,852.5,0.016
2828,853,0.016
2831,853.5,0.016
2834,854,0.016
2837,854.5,0.016
2840,855,0.016
2843,855.5,0.016
2846,856,0.016
2849,856.5,0.016
2852,857,0.016
2855,857.5,0.016
2858,858,0.016
2861,858.5,0.016
2864,859,0.016
2867,859.5,0.016
2870,860,0.016
2873,860.5,0.016
2876,861,0.016
2879,861.5,0.016
2882,862,0.016
2885,862.5,0.016
2888,863,0.016
2891,863.5,0.016
2894,864,0.016
2897,864.5,0.016
2900,865,0.016
2903,865.5,0.016
2906,866,0.016
2909,866.5,0.016
2912,867,0.016
2915,867.5,0.016
2918,868,0.016
2921,868.5,0.016
2924,869,0.016
2927,869.5,0.016
2930,870,0.016
2933,870.5,0.016
2936,871,0.016
2939,871.5,0.016
2942,872,0.016
2945,872.5,0.016
2948,873,0.016
2951,873.5,0.016
2954,874,0.016
2957,874.5,0.016
2960,875,0.016
2963,875.5,0.016
2966,876,0.016
2969,876.5,0.016
2972,877,0.016
2975,877.5,0.016
2978,878,0.016
2981,878.5,0.016
2984,879,0.016
2987,879.5,0.016
2990,880,0.016
2993,880.5,0.016
2996,881,0.016
2999,881.5,0.016
3002,882,0.016
3005,882.5,0.016
3008,883,0.016
3011,883.5,0.016
3014,884,0.016
3017,884.5,0.016
3020,885,0.016
3023,885.5,0.016
3026,886,0.016
3029,886.5,0.016
3032,887,0.016
3035,887.5,0.016
3038,888,0.016
3041,888.5,0.016
3044,889,0.016
3047,889.5,0.016
3050,890,0.016
3053,890.5,0.016
3056,891,0.016
3059,891.5,0.016
3062,892,0.016
3065,892.5,0.016
3068,893,0.016
3071,893.5,0.016
3074,894,0.016
3077,894.5,0.016
3080,895,0.016
3083,895.5,0.015
3086,896,0.015
3089,896.5,0.015
3092,897,0.015
3095,897.5,0.015
3098,898,0.015
3101,898.5,0.015
3104,899,0.015
3107,899.5,0.015
3110,900,0.015
3113,900.5,0.015
3116,901,0.015
3119,901.5,0.015
3122,902,0.015
3125,902.5,0.015
3128,903,0.015
3131,903.5,0.015
3134,904,0.015
3137,904.5,0.015
3140,905,0.015
3143,905.5,0.015
3146,906,0.015
3149,906.5,0.015
3152,907,0.015
3155,907.5,0.015
3158,908,0.015
3161,908.5,0.015
3164,909,0.015
3167,909.5,0.015
3170,910,0.015
3173,910.5,0.015
3176,911,0.015
3179,911.5,0.015
3182,912,0.015
3185,912.5,0.015
3188,913,0.015
3191,913.5,0.015
3194,914,0.015
3197,914.5,0.015
3200,915,0.015
3203,915.5,0.015
3206,916,0.015
3209,916.5,0.015
3212,917,0.015
3215,917.5,0.015
3218,918,0.015
3221,918.5,0.015
3224,919,0.015
3227,919.5,0.015
3230,920,0.015
3233,920.5,0.015
3236,921,0.015
3239,921.5,0.015
3242,922,0.015
3245,922.5,0.015
3248,923,0.015
3251,923.5,0.015
3254,924,0.015
3257,924.5,0.015
3260,925,0.015
3263,925.5,0.015
3266,926,0.015
3269,926.5,0.015
3272,927,0.015
3275,927.5,0.015
3278,928,0.015
3281,928.5,0.015
3284,929,0.015
3287,929.5,0.015
3290,930,0.015
3293,930.5,0.015
3296,931,0.015
3299,931.5,0.015
3302,932,0.015
3305,932.5,0.015
3308,933,0.015
3311,933.5,0.015
3314,934,0.015
3317,934.5,0.015
3320,935,0.015
3323,935.5,0.015
3326,936,0.015
3329,936.5,0.015
3332,937,0.015
3335,937.5,0.015
3338,938,0.015
3341,938.5,0.015
3344,939,0.015
3347,939.5,0.015
3350,940,0.015
3353,940.5,0.015
3356,941,0.015
3359,941.5,0.015
3362,942,0.015
3365,942.5,0.015
3368,943,0.015
3371,943.5,0.015
3374,944,0.015
3377,944.5,0.015
3380,945,0.015
3383,945.5,0.015
3386,946,0.015
3389,946.5,0.015
3392,947,0.015
3395,947.5,0.015
3398,948,0.015
3401,948.5,0.015
3404,949,0.015
3407,949.5,0.015
3410,950,0.015
3413,950.5,0.015
3416,951,0.015
3419,951.5,0.015
3422,952,0.015
3425,952.5,0.015
3428,953,0.015
3431,953.5,0.015
3434,954,0.015
3437,954.5,0.015
3440,955,0.015
3443,955.5,0.015
3446,956,0.015
3449,956.5,0.015
3452,957,0.015
3455,957.5,0.015
3458,958,0.015
3461,958.5,0.015
3464,959,0.015
3467,959.5,0.015
3470,960,0.015
3473,960.5,0.015
3476,961,0.015
3479,961.5,0.015
3482,962,0.015
3485,962.5,0.015
3488,963,0.015
3491,963.5,0.015
3494,964,0.015
3497,964.5,0.015
3500,965,0.015
3503,965.5,0.015
3506,966,0.015
3509,966.5,0.015
3512,967,0.015
3515,967.5,0.015
3518,968,0.015
3521,968.5,0.015
3524,969,0.015
3527,969.5,0.015
3530,970,0.015
3533,970.5,0.015
3536,971,0.015
3539,971.5,0.015
3542,972,0.015
3545,972.5,0.015
3548,973,0.015
3551,973.5,0.015
3554,974,0.015
3557,974.5,0.015
3560,975,0.015
3563,975.5,0.015
3566,976,0.015
3569,976.5,0.015
3572,977,0.015
3575,977.5,0.015
3578,978,0.015
3581,978.5,0.015
3584,979,0.015
3587,979.5,0.015
3590,980,0.015
3593,980.5,0.015
3596,981,0.015
3599,981.5,0.015
3602,982,0.015
3605,982.5,0.015
3608,983,0.015
3611,983.5,0.015
3614,984,0.015
3617,984.5,0.015
3620,985,0.015
3623,985.5,0.015
3626,986,0.015
3629,986.5,0.015
3632,987,0.015
3635,987.5,0.015
3638,988,0.015
3641,988.5,0.015
3644,989,0.015
3647,989.5,0.015
3650,990,0.015
3653,990.5,0.015
3656,991,0.015
3659,991.5,0.015
3662,992,0.015
3665,992.5,0.015
3668,993,0.015
3671,993.5,0.015
3674,994,0.015
3677,994.5,0.015
3680,995,0.015
3683,995.5,0.015
3686,996,0.015
3689,996.5,0.015
3692,997,0.015
3695,997.5,0.015
3698,998,0.015
3701,998.5,0.015
3704,999,0.015
3707,999.5,0.015
3710,1000,0.015
3713,1000.5,0.015
3716,1001,0.015
3719,1001.5,0.015
3722,1002,0.015
3725,1002.5,0.015
3728,1003,0.015
3731,1003.5,0.015
3734,1004,0.015
3737,1004.5,0.015
3740,1005,0.015
3743,1005.5,0.015
3746,1006,0.015
3749,1006.5,0.015
3752,1007,0.015
3755,1007.5,0.015
3758,1008,0.015
3761,1008.5,0.015
3764,1009,0.015
3767,1009.5,0.015
3770,1010,0.015
3773,1010.5,0.015
3776,1011,0.015
3779,1011.5,0.015
3782,1012,0.015
3785,1012.5,0.015
3788,1013,0.015
3791,1013.5,0.015
3794,1014,0.015
3797,1014.5,0.015
3800,1015,0.015
3803,1015.5,0.015
3806,1016,0.015
3809,1016.5,0.015
3812,1017,0.015
3815,1017.5,0.015
3818,1018,0.015
3821,1018.5,0.015
3824,1019,0.015
3827,1019.5,0.015
3830,1020,0.015
3833,1020.5,0.015
3836,1021,0.015
3839,1021.5,0.015
3842,1022,0.015
3845,1022.5,0.015
3848,1023,0.015
3851,1023.5,0.015
3854,1024,0.015
3857,1024.5,0.015
3860,1025,0.015
3863,1025.5,0.015
3866,1026,0.015
3869,1026.5,0.015
3872,1027,0.015
3875,1027.5,0.015
3878,1028,0.015
3881,1028.5,0.015
3884,1029,0.015
3887,1029.5,0.015
3890,1030,0.015
3893,1030.5,0.015
3896,1031,0.015
3899,1031.5,0.015
3902,1032,0.015
3905,1032.5,0.015
3908,1033,0.015
3911,1033.5,0.015
3914,1034,0.015
3917,1034.5,0.015
3920,1035,0.015
3923,1035.5,0.015
3926,1036,0.015
3929,1036.5,0.015
3932,1037,0.015
3935,1037.5,0.015
3938,1038,0.015
3941,1038.5,0.015
3944,1039,0.015
3947,1039.5,0.015
3950,1040,0.015
3953,1040.5,0.015
3956,1041,0.015
3959,1041.5,0.015
3962,1042,0.015
3965,1042.5,0.015
3968,1043,0.015
3971,1043.5,0.015
3974,1044,0.015
3977,1044.5,0.015
3980,1045,0.015
3983,1045.5,0.015
3986,1046,0.015
3989,1046.5,0.015
3992,1047,0.015
3995,1047.5,0.015
3998,1048,0.015
4001,1048.5,0.015
4004,1049,0.015
4007,1049.5,0.015
4010,1050,0.015
4013,1050.5,0.015
4016,1051,0.015
4019,1051.5,0.015
4022,1052,0.015
4025,1052.5,0.015
4028,1053,0.015
4031,1053.5,0.015
4034,1054,0.015
4037,1054.5,0.015
4040,1055,0.015
4043,1055.5,0.015
4046,1056,0.015
4049,1056.5,0.015
4052,1057,0.015
4055,1057.5,0.015
4058,1058,0.015
4061,1058.5,0.015
4064,1059,0.015
4067,1059.5,0.015
4070,1060,0.015
4073,1060.5,0.015
4076,1061,0.015
4079,1061.5,0.015
4082,1062,0.015
4085,1062.5,0.015
4088,1063,0.015
4091,1063.5,0.015
4094,1064,0.015
4097,1064.5,0.015
4100,1065,0.015
4103,1065.5,0.015
4106,1066,0.015
4109,1066.5,0.015
4112,1067,0.015
4115,1067.5,0.015
4118,1068,0.015
4121,1068.5,0.015
4124,1069,0.015
4127,1069.5,0.015
4130,1070,0.015
4133,1070.5,0.015
4136,1071,0.015
4139,1071.5,0.015
4142,1072,0.015
4145,1072.5,0.015
4148,1073,0.015
4151,1073.5,0.015
4154,1074,0.015
4157,1074.5,0.015
4160,1075,0.015
4163,1075.5,0.015
4166,1076,0.015
4169,1076.5,0.015
4172,1077,0.015
4175,1077.5,0.015
4178,1078,0.015
4181,1078.5,0.015
4184,1079,0.015
4187,1079.5,0.015
4190,1080,0.015
4193,1080.5,0.015
4196,1081,0.015
4199,1081.5,0.015
4202,1082,0.015
4205,1082.5,0.015
4208,1083,0.015
4211,1083.5,0.015
4214,1084,0.015
4217,1084.5,0.015
4220,1085,0.015
4223,1085.5,0.015
4226,1086,0.015
4229,1086.5,0.015
4232,1087,0.015
4235,1087.5,0.015
4238,1088,0.015
4241,1088.5,0.015
4244,1089,0.015
4247,1089.5,0.015
4250,1090,0.015
4253,1090.5,0.015
4256,1091,0.015
4259,1091.5,0.015
4262,1092,0.015
4265,1092.5,0.015
4268,1093,0.015
4271,1093.5,0.015
4274,1094,0.015
4277,1094.5,0.015
4280,1095,0.015
4283,1095.5,0.015
4286,1096,0.014
4289,1096.5,0.014
4292,1097,0.014
4295,1097.5,0.014
4298,1098,0.014
4301,1098.5,0.014
4304,1099,0.014
4307,1099.5,0.014
4310,1100,0.014
4313,1100.5,0.014
4316,1101,0.014
4319,1101.5,0.014
4322,1102,0.014
4325,1102.5,0.014
4328,1103,0.014
4331,1103.5,0.014
4334,1104,0.014
4337,1104.5,0.014
4340,1105,0.014
4343,1105.5,0.014
4346,1106,0.014
4349,1106.5,0.014
4352,1107,0.014
4355,1107.5,0.014
4358,1108,0.014
4361,1108.5,0.014
4364,1109,0.014
4367,1109.5,0.014
4370,1110,0.014
4373,1110.5,0.014
4376,1111,0.014
4379,1111.5,0.014
4382,1112,0.014
4385,1112.5,0.014
4388,1113,0.014
4391,1113.5,0.014
4394,1114,0.014
4397,1114.5,0.014
4400,1115,0.014
4403,1115.5,0.014
4406,1116,0.014
4409,1116.5,0.014
4412,1117,0.014
4415,1117.5,0.014
4418,1118,0.014
4421,1118.5,0.014
4424,1119,0.014
4427,1119.5,0.014
4430,1120,0.014
4433,1120.5,0.014
4436,1121,0.014
4439,1121.5,0.014
4442,1122,0.014
4445,1122.5,0.014
4448,1123,0.014
4451,1123.5,0.014
4454,1124,0.014
4457,1124.5,0.014
4460,1125,0.014
4463,1125.5,0.014
4466,1126,0.014
4469,1126.5,0.014
4472,1127,0.014
4475,1127.5,0.014
4478,1128,0.014
4481,1128.5,0.014
4484,1129,0.014
4487,1129.5,0.014
4490,1130,0.014
4493,1130.5,0.014
4496,1131,0.014
4499,1131.5,0.014
4502,1132,0.014
4505,1132.5,0.014
4508,1133,0.014
4511,1133.5,0.014
4514,1134,0.014
4517,1134.5,0.013
4520,1135,0.013
4523,1135.5,0.013
4526,1136,0.013
4529,1136.5,0.013
4532,1137,0.013
4535,1137.5,0.013
4538,1138,0.013
4541,1138.5,0.013
4544,1139,0.013
4547,1139.5,0.013
4550,1140,0.013
4553,1140.5,0.013
4556,1141,0.013
4559,1141.5,0.013
4562,1142,0.013
4565,1142.5,0.013
4568,1143,0.013
4571,1143.5,0.013
4574,1144,0.013
4577,1144.5,0.013
4580,1145,0.013
4583,1145.5,0.013
4586,1146,0.013
4589,1146.5,0.013
4592,1147,0.013
4595,1147.5,0.013
4598,1148,0.013
4601,1148.5,0.013
4604,1149,0.013
4607,1149.5,0.013
4610,1150,0.013
4613,1150.5,0.013
4616,1151,0.013
4619,1151.5,0.013
4622,1152,0.013
4625,1152.5,0.013
4628,1153,0.013
4631,1153.5,0.013
4634,1154,0.013
4637,1154.5,0.013
4640,1155,0.013
4643,1155.5,0.013
4646,1156,0.013
4649,1156.5,0.013
4652,1157,0.013
4655,1157.5,0.013
4658,1158,0.013
4661,1158.5,0.013
4664,1159,0.013
4667,1159.5,0.013
4670,1160,0.013
4673,1160.5,0.013
4676,1161,0.013
4679,1161.5,0.013
4682,1162,0.013
4685,1162.5,0.013
4688,1163,0.013
4691,1163.5,0.013
4694,1164,0.012
4697,1164.5,0.012
4700,1165,0.012
4703,1165.5,0.012
4706,1166,0.012
4709,1166.5,0.012
4712,1167,0.012
4715,1167.5,0.012
4718,1168,0.012
4721,1168.5,0.012
4724,1169,0.012
4727,1169.5,0.012
4730,1170,0.012
4733,1170.5,0.012
4736,1171,0.012
4739,1171.5,0.012
