Time (s),Temperature (K),Mass (mg)
0,383,4.615
15,383.5,4.615
23,384,4.616
30,384.5,4.616
37,385,4.616
43,385.5,4.616
50,386,4.616
56,386.5,4.616
62,387,4.616
68,387.5,4.616
75,388,4.616
81,388.5,4.616
87,389,4.616
93,389.5,4.616
99,390,4.616
105,390.5,4.616
111,391,4.616
117,391.5,4.616
123,392,4.616
129,392.5,4.616
135,393,4.616
141,393.5,4.616
147,394,4.615
153,394.5,4.615
159,395,4.615
165,395.5,4.615
171,396,4.615
177,396.5,4.615
183,397,4.615
189,397.5,4.615
195,398,4.615
201,398.5,4.615
207,399,4.615
213,399.5,4.615
219,400,4.615
225,400.5,4.615
231,401,4.615
237,401.5,4.615
243,402,4.614
249,402.5,4.614
255,403,4.614
261,403.5,4.614
267,404,4.614
273,404.5,4.614
279,405,4.614
285,405.5,4.614
290,406,4.614
297,406.5,4.614
303,407,4.613
308,407.5,4.613
314,408,4.613
320,408.5,4.613
326,409,4.613
332,409.5,4.613
338,410,4.613
344,410.5,4.613
350,411,4.612
356,411.5,4.612
362,412,4.612
368,412.5,4.612
374,413,4.612
380,413.5,4.612
386,414,4.612
392,414.5,4.611
398,415,4.611
404,415.5,4.611
410,416,4.611
416,416.5,4.611
422,417,4.611
428,417.5,4.61
434,418,4.61
440,418.5,4.61
446,419,4.61
452,419.5,4.61
458,420,4.609
464,420.5,4.609
470,421,4.609
476,421.5,4.609
482,422,4.609
488,422.5,4.608
494,423,4.608
500,423.5,4.608
506,424,4.607
512,424.5,4.607
518,425,4.607
524,425.5,4.607
530,426,4.606
536,426.5,4.606
542,427,4.606
548,427.5,4.605
554,428,4.605
560,428.5,4.605
566,429,4.605
572,429.5,4.604
578,430,4.604
584,430.5,4.604
590,431,4.603
596,431.5,4.603
602,432,4.603
608,432.5,4.602
614,433,4.602
620,433.5,4.601
626,434,4.601
632,434.5,4.601
637,435,4.6
644,435.5,4.6
650,436,4.599
655,436.5,4.599
661,437,4.599
667,437.5,4.598
673,438,4.598
679,438.5,4.597
685,439,4.597
691,439.5,4.596
697,440,4.596
703,440.5,4.595
709,441,4.595
715,441.5,4.594
721,442,4.594
727,442.5,4.593
733,443,4.593
739,443.5,4.592
745,444,4.592
751,444.5,4.591
757,445,4.59
763,445.5,4.59
769,446,4.589
775,446.5,4.589
781,447,4.588
787,447.5,4.587
793,448,4.587
799,448.5,4.586
805,449,4.586
811,449.5,4.585
817,450,4.584
823,450.5,4.584
829,451,4.583
835,451.5,4.582
841,452,4.582
847,452.5,4.581
853,453,4.58
859,453.5,4.58
865,454,4.579
871,454.5,4.578
877,455,4.577
883,455.5,4.577
889,456,4.576
895,456.5,4.575
901,457,4.574
907,457.5,4.574
913,458,4.573
919,458.5,4.572
925,459,4.571
931,459.5,4.57
937,460,4.57
943,460.5,4.569
949,461,4.568
955,461.5,4.567
961,462,4.566
967,462.5,4.565
973,463,4.564
979,463.5,4.563
985,464,4.563
991,464.5,4.562
997,465,4.561
1003,465.5,4.56
1009,466,4.559
1015,466.5,4.558
1021,467,4.557
1027,467.5,4.556
1033,468,4.555
1039,468.5,4.554
1045,469,4.553
1051,469.5,4.552
1057,470,4.551
1063,470.5,4.55
1069,471,4.548
1075,471.5,4.547
1081,472,4.546
1087,472.5,4.545
1093,473,4.544
1099,473.5,4.543
1105,474,4.542
1111,474.5,4.541
1117,475,4.539
1123,475.5,4.538
1128,476,4.537
1134,476.5,4.536
1141,477,4.534
1147,477.5,4.533
1152,478,4.532
1159,478.5,4.531
1164,479,4.529
1170,479.5,4.528
1176,480,4.527
1182,480.5,4.525
1188,481,4.524
1194,481.5,4.523
1200,482,4.521
1206,482.5,4.52
1212,483,4.518
1218,483.5,4.517
1224,484,4.515
1230,484.5,4.514
1236,485,4.512
1242,485.5,4.511
1248,486,4.509
1254,486.5,4.508
1260,487,4.506
1266,487.5,4.504
1272,488,4.503
1278,488.5,4.501
1284,489,4.499
1290,489.5,4.498
1296,490,4.496
1302,490.5,4.494
1308,491,4.492
1314,491.5,4.491
1320,492,4.489
1326,492.5,4.487
1332,493,4.485
1338,493.5,4.483
1344,494,4.481
1350,494.5,4.479
1356,495,4.477
1362,495.5,4.475
1368,496,4.473
1374,496.5,4.471
1380,497,4.469
1386,497.5,4.467
1392,498,4.465
1398,498.5,4.463
1404,499,4.461
1410,499.5,4.458
1416,500,4.456
1422,500.5,4.454
1428,501,4.452
1434,501.5,4.449
1440,502,4.447
1446,502.5,4.445
1452,503,4.442
1458,503.5,4.44
1464,504,4.437
1470,504.5,4.434
1476,505,4.432
1482,505.5,4.429
1488,506,4.427
1494,506.5,4.424
1500,507,4.421
1506,507.5,4.418
1512,508,4.416
1518,508.5,4.413
1524,509,4.41
1530,509.5,4.407
1536,510,4.404
1542,510.5,4.4
1548,511,4.397
1554,511.5,4.394
1560,512,4.391
1566,512.5,4.388
1572,513,4.385
1578,513.5,4.381
1584,514,4.378
1590,514.5,4.374
1596,515,4.371
1602,515.5,4.367
1608,516,4.364
1614,516.5,4.36
1619,517,4.357
1626,517.5,4.353
1632,518,4.349
1637,518.5,4.346
1643,519,4.342
1649,519.5,4.338
1655,520,4.334
1661,520.5,4.33
1667,521,4.326
1673,521.5,4.322
1679,522,4.318
1685,522.5,4.313
1691,523,4.309
1697,523.5,4.304
1703,524,4.3
1709,524.5,4.296
1715,525,4.291
1721,525.5,4.287
1727,526,4.282
1733,526.5,4.277
1739,527,4.273
1745,527.5,4.268
1751,528,4.263
1757,528.5,4.258
1763,529,4.253
1769,529.5,4.248
1775,530,4.243
1781,530.5,4.238
1787,531,4.233
1793,531.5,4.228
1799,532,4.223
1805,532.5,4.218
1811,533,4.212
1817,533.5,4.207
1823,534,4.202
1829,534.5,4.196
1835,535,4.191
1841,535.5,4.185
1847,536,4.18
1853,536.5,4.174
1859,537,4.169
1865,537.5,4.163
1871,538,4.157
1877,538.5,4.151
1883,539,4.146
1889,539.5,4.14
1895,540,4.134
1901,540.5,4.128
1907,541,4.122
1913,541.5,4.116
1919,542,4.11
1925,542.5,4.103
1931,543,4.097
1937,543.5,4.091
1943,544,4.084
1949,544.5,4.078
1955,545,4.072
1961,545.5,4.065
1967,546,4.059
1973,546.5,4.052
1979,547,4.045
1985,547.5,4.039
1991,548,4.032
1997,548.5,4.025
2003,549,4.018
2009,549.5,4.011
2015,550,4.004
2021,550.5,3.997
2027,551,3.99
2033,551.5,3.983
2039,552,3.975
2045,552.5,3.968
2051,553,3.96
2057,553.5,3.953
2063,554,3.945
2069,554.5,3.938
2075,555,3.93
2081,555.5,3.922
2087,556,3.914
2093,556.5,3.906
2099,557,3.898
2105,557.5,3.89
2111,558,3.882
2117,558.5,3.874
2123,559,3.865
2129,559.5,3.857
2135,560,3.848
2141,560.5,3.84
2147,561,3.831
2153,561.5,3.822
2159,562,3.813
2165,562.5,3.804
2171,563,3.795
2176,563.5,3.787
2182,564,3.778
2188,564.5,3.768
2194,565,3.759
2200,565.5,3.749
2206,566,3.74
2212,566.5,3.73
2218,567,3.72
2224,567.5,3.71
2230,568,3.699
2236,568.5,3.689
2242,569,3.678
2248,569.5,3.668
2254,570,3.657
2260,570.5,3.646
2266,571,3.635
2272,571.5,3.624
2278,572,3.612
2284,572.5,3.601
2290,573,3.589
2296,573.5,3.577
2302,574,3.565
2308,574.5,3.553
2314,575,3.541
2320,575.5,3.528
2326,576,3.516
2332,576.5,3.503
2338,577,3.49
2344,577.5,3.477
2350,578,3.463
2356,578.5,3.45
2362,579,3.436
2368,579.5,3.422
2374,580,3.408
2380,580.5,3.393
2386,581,3.379
2392,581.5,3.364
2398,582,3.349
2404,582.5,3.334
2410,583,3.318
2416,583.5,3.303
2422,584,3.287
2428,584.5,3.271
2434,585,3.254
2440,585.5,3.238
2446,586,3.221
2452,586.5,3.203
2458,587,3.186
2464,587.5,3.168
2470,588,3.15
2476,588.5,3.132
2482,589,3.114
2488,589.5,3.095
2494,590,3.076
2500,590.5,3.056
2506,591,3.037
2512,591.5,3.016
2518,592,2.996
2524,592.5,2.975
2530,593,2.954
2536,593.5,2.932
2542,594,2.909
2548,594.5,2.887
2554,595,2.863
2560,595.5,2.839
2566,596,2.815
2572,596.5,2.79
2578,597,2.764
2584,597.5,2.737
2590,598,2.71
2596,598.5,2.682
2602,599,2.653
2608,599.5,2.624
2614,600,2.593
2620,600.5,2.562
2626,601,2.53
2632,601.5,2.497
2638,602,2.464
2644,602.5,2.429
2650,603,2.395
2656,603.5,2.359
2662,604,2.323
2668,604.5,2.287
2674,605,2.251
2680,605.5,2.215
2686,606,2.179
2692,606.5,2.144
2698,607,2.109
2704,607.5,2.074
2709,608,2.046
2715,608.5,2.014
2721,609,1.982
2727,609.5,1.952
2733,610,1.923
2739,610.5,1.896
2745,611,1.87
2751,611.5,1.845
2757,612,1.822
2763,612.5,1.8
2769,613,1.779
2775,613.5,1.76
2781,614,1.742
2787,614.5,1.725
2793,615,1.709
2799,615.5,1.694
2805,616,1.681
2811,616.5,1.667
2817,617,1.655
2823,617.5,1.643
2829,618,1.631
2835,618.5,1.62
2841,619,1.61
2847,619.5,1.6
2853,620,1.59
2859,620.5,1.581
2865,621,1.571
2871,621.5,1.562
2877,622,1.554
2883,622.5,1.545
2889,623,1.537
2895,623.5,1.529
2901,624,1.521
2907,624.5,1.513
2913,625,1.506
2919,625.5,1.499
2925,626,1.491
2931,626.5,1.484
2937,627,1.477
2943,627.5,1.47
2949,628,1.464
2955,628.5,1.457
2961,629,1.451
2967,629.5,1.444
2973,630,1.438
2979,630.5,1.432
2985,631,1.426
2991,631.5,1.42
2997,632,1.414
3003,632.5,1.408
3009,633,1.403
3015,633.5,1.397
3021,634,1.391
3027,634.5,1.386
3033,635,1.38
3039,635.5,1.375
3045,636,1.369
3051,636.5,1.364
3057,637,1.359
3063,637.5,1.354
3069,638,1.349
3075,638.5,1.344
3081,639,1.339
3087,639.5,1.334
3093,640,1.329
3099,640.5,1.324
3105,641,1.319
3111,641.5,1.314
3117,642,1.309
3123,642.5,1.305
3129,643,1.3
3135,643.5,1.295
3141,644,1.29
3147,644.5,1.286
3153,645,1.281
3159,645.5,1.277
3165,646,1.272
3171,646.5,1.268
3177,647,1.263
3183,647.5,1.258
3189,648,1.254
3195,648.5,1.249
3201,649,1.245
3207,649.5,1.241
3212,650,1.237
3219,650.5,1.232
3225,651,1.227
3230,651.5,1.224
3237,652,1.219
3242,652.5,1.215
3249,653,1.21
3254,653.5,1.206
3260,654,1.202
3266,654.5,1.198
3272,655,1.194
3278,655.5,1.19
3284,656,1.185
3290,656.5,1.181
3296,657,1.177
3302,657.5,1.173
3308,658,1.168
3314,658.5,1.164
3320,659,1.16
3326,659.5,1.156
3332,660,1.152
3338,660.5,1.148
3344,661,1.144
3350,661.5,1.139
3356,662,1.135
3362,662.5,1.131
3368,663,1.127
3374,663.5,1.123
3380,664,1.119
3386,664.5,1.115
3392,665,1.111
3398,665.5,1.107
3404,666,1.103
3410,666.5,1.099
3416,667,1.095
3422,667.5,1.09
3428,668,1.086
3434,668.5,1.082
3440,669,1.078
3446,669.5,1.074
3452,670,1.07
3458,670.5,1.066
3464,671,1.062
3470,671.5,1.058
3476,672,1.054
3482,672.5,1.05
3488,673,1.046
3494,673.5,1.042
3500,674,1.038
3506,674.5,1.034
3512,675,1.029
3518,675.5,1.025
3524,676,1.021
3530,676.5,1.017
3536,677,1.013
3542,677.5,1.009
3548,678,1.005
3554,678.5,1.001
3560,679,0.997
3566,679.5,0.992
3572,680,0.988
3578,680.5,0.984
3584,681,0.98
3590,681.5,0.976
3596,682,0.972
3602,682.5,0.967
3608,683,0.963
3614,683.5,0.959
3620,684,0.955
3626,684.5,0.95
3632,685,0.946
3638,685.5,0.942
3644,686,0.937
3650,686.5,0.933
3656,687,0.929
3662,687.5,0.924
3668,688,0.92
3674,688.5,0.916
3680,689,0.911
3686,689.5,0.907
3692,690,0.902
3698,690.5,0.898
3704,691,0.893
3710,691.5,0.889
3716,692,0.884
3722,692.5,0.88
3727,693,0.876
3734,693.5,0.87
3740,694,0.866
3745,694.5,0.862
3751,695,0.857
3757,695.5,0.852
3763,696,0.848
3769,696.5,0.843
3775,697,0.838
3781,697.5,0.833
3787,698,0.828
3793,698.5,0.823
3799,699,0.818
3805,699.5,0.813
3811,700,0.808
3817,700.5,0.802
3823,701,0.798
3829,701.5,0.793
3835,702,0.788
3841,702.5,0.783
3847,703,0.778
3853,703.5,0.773
3859,704,0.768
3865,704.5,0.762
3871,705,0.757
3877,705.5,0.752
3883,706,0.746
3889,706.5,0.741
3895,707,0.735
3901,707.5,0.73
3907,708,0.724
3913,708.5,0.719
3919,709,0.713
3925,709.5,0.707
3931,710,0.702
3937,710.5,0.696
3943,711,0.69
3949,711.5,0.684
3955,712,0.679
3961,712.5,0.673
3967,713,0.667
3973,713.5,0.661
3979,714,0.656
3985,714.5,0.65
3991,715,0.644
3997,715.5,0.638
4003,716,0.632
4009,716.5,0.626
4015,717,0.62
4021,717.5,0.614
4027,718,0.608
4033,718.5,0.602
4039,719,0.596
4045,719.5,0.59
4051,720,0.584
4057,720.5,0.578
4063,721,0.572
4069,721.5,0.565
4075,722,0.559
4081,722.5,0.553
4087,723,0.547
4093,723.5,0.541
4099,724,0.535
4105,724.5,0.528
4111,725,0.522
4117,725.5,0.516
4123,726,0.51
4129,726.5,0.503
4135,727,0.497
4141,727.5,0.491
4147,728,0.484
4153,728.5,0.478
4159,729,0.471
4165,729.5,0.465
4171,730,0.458
4177,730.5,0.452
4183,731,0.445
4189,731.5,0.439
4195,732,0.432
4201,732.5,0.426
4207,733,0.419
4213,733.5,0.413
4219,734,0.406
4225,734.5,0.399
4231,735,0.393
4237,735.5,0.386
4243,736,0.379
4249,736.5,0.372
4255,737,0.365
4261,737.5,0.359
4267,738,0.352
4273,738.5,0.345
4279,739,0.338
4285,739.5,0.331
4291,740,0.324
4297,740.5,0.317
4303,741,0.31
4309,741.5,0.303
4315,742,0.296
4321,742.5,0.288
4327,743,0.281
4333,743.5,0.274
4339,744,0.267
4345,744.5,0.259
4351,745,0.252
4357,745.5,0.244
4363,746,0.237
4369,746.5,0.23
4375,747,0.222
4381,747.5,0.214
4387,748,0.207
4393,748.5,0.199
4399,749,0.191
4405,749.5,0.183
4411,750,0.175
4417,750.5,0.168
4423,751,0.16
4429,751.5,0.153
4435,752,0.145
4441,752.5,0.137
4447,753,0.129
4453,753.5,0.122
4459,754,0.115
4465,754.5,0.108
4471,755,0.101
4477,755.5,0.095
4483,756,0.088
4489,756.5,0.082
4495,757,0.076
4501,757.5,0.071
4507,758,0.066
4513,758.5,0.062
4519,759,0.058
4525,759.5,0.054
4531,760,0.05
4537,760.5,0.047
4543,761,0.045
4549,761.5,0.043
4555,762,0.041
4561,762.5,0.039
4567,763,0.038
4573,763.5,0.036
4579,764,0.035
4585,764.5,0.034
4591,765,0.033
4597,765.5,0.032
4603,766,0.031
4609,766.5,0.03
4615,767,0.03
4621,767.5,0.029
4627,768,0.029
4633,768.5,0.029
4639,769,0.029
4645,769.5,0.029
4651,770,0.028
4657,770.5,0.028
4663,771,0.028
4669,771.5,0.028
4675,772,0.028
4681,772.5,0.028
4687,773,0.028
4693,773.5,0.028
4699,774,0.028
4705,774.5,0.028
4711,775,0.028
4717,775.5,0.028
4723,776,0.028
4729,776.5,0.027
4735,777,0.027
4741,777.5,0.027
4747,778,0.027
4753,778.5,0.027
4759,779,0.027
4765,779.5,0.027
4771,780,0.027
4777,780.5,0.027
4783,781,0.027
4789,781.5,0.027
4795,782,0.027
4801,782.5,0.027
4807,783,0.027
4813,783.5,0.027
4819,784,0.027
4825,784.5,0.027
4831,785,0.027
4837,785.5,0.027
4843,786,0.026
4849,786.5,0.026
4855,787,0.026
4861,787.5,0.026
4867,788,0.026
4873,788.5,0.026
4879,789,0.026
4885,789.5,0.026
4891,790,0.026
4897,790.5,0.026
4903,791,0.026
4909,791.5,0.026
4915,792,0.026
4921,792.5,0.026
4927,793,0.026
4933,793.5,0.026
4939,794,0.026
4945,794.5,0.026
4951,795,0.026
4957,795.5,0.026
4963,796,0.026
4969,796.5,0.026
4975,797,0.025
4981,797.5,0.025
4987,798,0.025
4993,798.5,0.025
4999,799,0.025
5005,799.5,0.025
5011,800,0.025
5017,800.5,0.025
5023,801,0.025
5029,801.5,0.025
5035,802,0.025
5041,802.5,0.025
5047,803,0.025
5053,803.5,0.025
5059,804,0.025
5065,804.5,0.025
5071,805,0.025
5077,805.5,0.025
5083,806,0.025
5089,806.5,0.025
5095,807,0.025
5101,807.5,0.025
5107,808,0.025
5113,808.5,0.025
5119,809,0.025
5125,809.5,0.025
5131,810,0.025
5137,810.5,0.025
5143,811,0.025
5149,811.5,0.025
5155,812,0.025
5161,812.5,0.025
5167,813,0.025
5173,813.5,0.025
5179,814,0.025
5185,814.5,0.025
5191,815,0.025
5197,815.5,0.025
5203,816,0.025
5209,816.5,0.025
5215,817,0.025
5221,817.5,0.025
5227,818,0.025
5233,818.5,0.025
5239,819,0.025
5245,819.5,0.025
5251,820,0.025
5257,820.5,0.025
5263,821,0.025
5269,821.5,0.025
5275,822,0.025
5281,822.5,0.025
5287,823,0.025
5293,823.5,0.025
5299,824,0.025
5305,824.5,0.025
5311,825,0.025
5317,825.5,0.025
5323,826,0.025
5329,826.5,0.025
5335,827,0.025
5341,827.5,0.025
5347,828,0.025
5353,828.5,0.025
5359,829,0.025
5365,829.5,0.025
5371,830,0.025
5377,830.5,0.025
5383,831,0.025
5389,831.5,0.025
5395,832,0.025
5401,832.5,0.025
5407,833,0.025
5413,833.5,0.025
5419,834,0.025
5425,834.5,0.025
5431,835,0.025
5437,835.5,0.025
5443,836,0.025
5449,836.5,0.025
5455,837,0.025
5461,837.5,0.025
5467,838,0.025
5473,838.5,0.025
5479,839,0.025
5485,839.5,0.025
5491,840,0.025
5497,840.5,0.025
5503,841,0.025
5509,841.5,0.025
5515,842,0.025
5521,842.5,0.025
5527,843,0.025
5533,843.5,0.025
5539,844,0.025
5545,844.5,0.025
5551,845,0.025
5557,845.5,0.025
5563,846,0.025
5569,846.5,0.025
5575,847,0.025
5581,847.5,0.025
5587,848,0.025
5593,848.5,0.025
5599,849,0.025
5605,849.5,0.025
5611,850,0.025
5617,850.5,0.025
5623,851,0.025
5629,851.5,0.025
5635,852,0.025
5641,852.5,0.025
5647,853,0.025
5653,853.5,0.025
5659,854,0.025
5665,854.5,0.025
5671,855,0.025
5677,855.5,0.025
5683,856,0.024
5689,856.5,0.024
5695,857,0.024
5701,857.5,0.024
5707,858,0.024
5713,858.5,0.024
5719,859,0.024
5725,859.5,0.024
5731,860,0.024
5737,860.5,0.024
5743,861,0.024
5749,861.5,0.024
5755,862,0.024
5761,862.5,0.024
5767,863,0.024
5773,863.5,0.024
5779,864,0.024
5785,864.5,0.024
5791,865,0.024
5797,865.5,0.024
5803,866,0.024
5809,866.5,0.024
5815,867,0.024
5821,867.5,0.024
5827,868,0.024
5833,868.5,0.024
5839,869,0.024
5845,869.5,0.024
5851,870,0.024
5857,870.5,0.024
5863,871,0.024
5869,871.5,0.024
5875,872,0.024
5881,872.5,0.024
5887,873,0.024
5893,873.5,0.024
5899,874,0.024
5905,874.5,0.024
5911,875,0.024
5917,875.5,0.024
5923,876,0.024
5929,876.5,0.024
5935,877,0.024
5941,877.5,0.024
5947,878,0.024
5953,878.5,0.024
5959,879,0.024
5965,879.5,0.024
5971,880,0.024
5977,880.5,0.024
5983,881,0.024
5989,881.5,0.024
5995,882,0.024
6001,882.5,0.024
6007,883,0.024
6013,883.5,0.024
6019,884,0.024
6025,884.5,0.024
6031,885,0.024
6037,885.5,0.024
6043,886,0.024
6049,886.5,0.024
6055,887,0.024
6061,887.5,0.024
6067,888,0.024
6073,888.5,0.024
6079,889,0.024
6085,889.5,0.024
6091,890,0.024
6097,890.5,0.024
6103,891,0.024
6109,891.5,0.024
6115,892,0.024
6121,892.5,0.024
6127,893,0.024
6133,893.5,0.024
6139,894,0.024
6145,894.5,0.024
6151,895,0.024
6157,895.5,0.024
6163,896,0.024
6169,896.5,0.024
6175,897,0.024
6181,897.5,0.024
6187,898,0.024
6193,898.5,0.024
6199,899,0.024
6205,899.5,0.024
6211,900,0.024
6217,900.5,0.024
6223,901,0.024
6229,901.5,0.024
6235,902,0.024
6241,902.5,0.024
6247,903,0.024
6253,903.5,0.024
6259,904,0.024
6265,904.5,0.023
6271,905,0.023
6277,905.5,0.023
6283,906,0.023
6289,906.5,0.023
6295,907,0.023
6301,907.5,0.023
6307,908,0.023
6313,908.5,0.023
6319,909,0.024
6325,909.5,0.024
6331,910,0.024
6337,910.5,0.024
6343,911,0.024
6349,911.5,0.024
6355,912,0.024
6361,912.5,0.024
6367,913,0.024
6373,913.5,0.024
6379,914,0.024
6385,914.5,0.024
6391,915,0.024
6397,915.5,0.024
6403,916,0.024
6409,916.5,0.024
6415,917,0.024
6421,917.5,0.024
6427,918,0.024
6433,918.5,0.024
6439,919,0.024
6445,919.5,0.024
6451,920,0.024
6457,920.5,0.024
6463,921,0.024
6469,921.5,0.024
6475,922,0.024
6481,922.5,0.024
6487,923,0.024
6493,923.5,0.024
6499,924,0.024
6505,924.5,0.024
6511,925,0.024
6517,925.5,0.024
6523,926,0.024
6529,926.5,0.024
6535,927,0.024
6541,927.5,0.024
6547,928,0.024
6553,928.5,0.024
6559,929,0.024
6565,929.5,0.024
6571,930,0.024
6577,930.5,0.024
6583,931,0.024
6589,931.5,0.024
6595,932,0.024
6601,932.5,0.024
6607,933,0.024
6613,933.5,0.024
6619,934,0.024
6625,934.5,0.024
6631,935,0.024
6637,935.5,0.024
6643,936,0.024
6649,936.5,0.024
6655,937,0.024
6661,937.5,0.024
6667,938,0.024
6673,938.5,0.024
6679,939,0.024
6685,939.5,0.024
6691,940,0.024
6697,940.5,0.024
6703,941,0.024
6709,941.5,0.024
6715,942,0.024
6721,942.5,0.024
6727,943,0.024
6733,943.5,0.024
6739,944,0.024
6745,944.5,0.024
6751,945,0.024
6757,945.5,0.024
6763,946,0.024
6769,946.5,0.024
6775,947,0.024
6781,947.5,0.024
6787,948,0.024
6793,948.5,0.024
6799,949,0.024
6805,949.5,0.024
6811,950,0.024
6817,950.5,0.024
6823,951,0.024
6829,951.5,0.024
6835,952,0.024
6841,952.5,0.024
6847,953,0.024
6853,953.5,0.024
6859,954,0.024
6865,954.5,0.024
6871,955,0.024
6877,955.5,0.024
6883,956,0.024
6889,956.5,0.024
6895,957,0.024
6901,957.5,0.024
6907,958,0.024
6913,958.5,0.024
6919,959,0.024
6925,959.5,0.024
6931,960,0.024
6937,960.5,0.024
6943,961,0.024
6949,961.5,0.024
6955,962,0.024
6961,962.5,0.024
6967,963,0.024
6973,963.5,0.024
6979,964,0.024
6985,964.5,0.023
6991,965,0.024
6997,965.5,0.024
7003,966,0.024
7009,966.5,0.024
7015,967,0.024
7021,967.5,0.024
7027,968,0.024
7033,968.5,0.024
7039,969,0.024
7045,969.5,0.024
7051,970,0.024
7057,970.5,0.024
7063,971,0.024
7069,971.5,0.024
7075,972,0.024
7081,972.5,0.024
7087,973,0.024
7093,973.5,0.024
7099,974,0.024
7105,974.5,0.024
7111,975,0.024
7117,975.5,0.024
7123,976,0.024
7129,976.5,0.024
7135,977,0.024
7141,977.5,0.024
7147,978,0.024
7153,978.5,0.024
7159,979,0.024
7165,979.5,0.024
7171,980,0.024
7177,980.5,0.024
7183,981,0.024
7189,981.5,0.024
7195,982,0.024
7201,982.5,0.024
7207,983,0.024
7213,983.5,0.024
7219,984,0.024
7225,984.5,0.024
7231,985,0.024
7237,985.5,0.024
7243,986,0.024
7249,986.5,0.024
7255,987,0.024
7261,987.5,0.024
7267,988,0.024
7273,988.5,0.024
7279,989,0.024
7285,989.5,0.024
7291,990,0.024
7297,990.5,0.024
7303,991,0.024
7309,991.5,0.024
7315,992,0.024
7321,992.5,0.024
7327,993,0.024
7333,993.5,0.024
7339,994,0.024
7345,994.5,0.024
7351,995,0.024
7357,995.5,0.024
7363,996,0.024
7369,996.5,0.024
7375,997,0.024
7381,997.5,0.024
7387,998,0.024
7393,998.5,0.024
7399,999,0.024
7405,999.5,0.024
7411,1000,0.024
7417,1000.5,0.024
7423,1001,0.024
7429,1001.5,0.025
7435,1002,0.024
7441,1002.5,0.024
7447,1003,0.024
7453,1003.5,0.025
7459,1004,0.025
7465,1004.5,0.025
7471,1005,0.025
7477,1005.5,0.025
7483,1006,0.024
7489,1006.5,0.024
7495,1007,0.024
7501,1007.5,0.024
7507,1008,0.024
7513,1008.5,0.024
7519,1009,0.025
7525,1009.5,0.024
7531,1010,0.024
7537,1010.5,0.025
7543,1011,0.025
7549,1011.5,0.025
7555,1012,0.025
7561,1012.5,0.025
7567,1013,0.025
7573,1013.5,0.025
7579,1014,0.025
7585,1014.5,0.025
7591,1015,0.025
7597,1015.5,0.025
7603,1016,0.025
7609,1016.5,0.025
7615,1017,0.025
7621,1017.5,0.025
7627,1018,0.025
7633,1018.5,0.025
7639,1019,0.025
7645,1019.5,0.025
7651,1020,0.025
7657,1020.5,0.025
7663,1021,0.025
7669,1021.5,0.025
7675,1022,0.025
7681,1022.5,0.025
7687,1023,0.025
7693,1023.5,0.025
7699,1024,0.025
7705,1024.5,0.025
7711,1025,0.025
7717,1025.5,0.025
7723,1026,0.025
7729,1026.5,0.025
7735,1027,0.025
7741,1027.5,0.025
7747,1028,0.025
7753,1028.5,0.025
7759,1029,0.025
7765,1029.5,0.025
7771,1030,0.025
7777,1030.5,0.025
7783,1031,0.025
7789,1031.5,0.025
7795,1032,0.025
7801,1032.5,0.025
7807,1033,0.025
7813,1033.5,0.025
7819,1034,0.025
7825,1034.5,0.025
7831,1035,0.025
7837,1035.5,0.025
7843,1036,0.025
7849,1036.5,0.025
7855,1037,0.025
7861,1037.5,0.025
7867,1038,0.025
7873,1038.5,0.025
7879,1039,0.025
7885,1039.5,0.025
7891,1040,0.025
7897,1040.5,0.025
7903,1041,0.025
7909,1041.5,0.025
7915,1042,0.025
7921,1042.5,0.025
7927,1043,0.025
7933,1043.5,0.025
7939,1044,0.025
7945,1044.5,0.025
7951,1045,0.025
7957,1045.5,0.025
7963,1046,0.025
7969,1046.5,0.025
7975,1047,0.025
7981,1047.5,0.025
7987,1048,0.025
7993,1048.5,0.025
7999,1049,0.025
8005,1049.5,0.025
8011,1050,0.025
8017,1050.5,0.025
8023,1051,0.025
8029,1051.5,0.025
8035,1052,0.025
8041,1052.5,0.024
8047,1053,0.024
8053,1053.5,0.025
8059,1054,0.025
8065,1054.5,0.025
8071,1055,0.025
8077,1055.5,0.025
8083,1056,0.025
8089,1056.5,0.025
8095,1057,0.025
8101,1057.5,0.025
8107,1058,0.025
8113,1058.5,0.025
8119,1059,0.025
8125,1059.5,0.025
8131,1060,0.025
8137,1060.5,0.025
8143,1061,0.025
8149,1061.5,0.025
8155,1062,0.025
8161,1062.5,0.025
8167,1063,0.025
8173,1063.5,0.025
8179,1064,0.025
8185,1064.5,0.025
8191,1065,0.025
8197,1065.5,0.025
8203,1066,0.025
8209,1066.5,0.025
8215,1067,0.025
8221,1067.5,0.025
8227,1068,0.025
8233,1068.5,0.025
8239,1069,0.025
8245,1069.5,0.025
8251,1070,0.025
8257,1070.5,0.025
8263,1071,0.024
8269,1071.5,0.024
8275,1072,0.024
8281,1072.5,0.024
8287,1073,0.024
8293,1073.5,0.024
8299,1074,0.024
8305,1074.5,0.024
8311,1075,0.024
8317,1075.5,0.024
8323,1076,0.025
8329,1076.5,0.025
8335,1077,0.025
8341,1077.5,0.025
8347,1078,0.025
8353,1078.5,0.025
8359,1079,0.025
8365,1079.5,0.025
8371,1080,0.025
8377,1080.5,0.025
8383,1081,0.025
8389,1081.5,0.025
8395,1082,0.025
8401,1082.5,0.025
8407,1083,0.025
8413,1083.5,0.025
8419,1084,0.025
8425,1084.5,0.025
8431,1085,0.025
8437,1085.5,0.025
8443,1086,0.025
8449,1086.5,0.025
8455,1087,0.025
8461,1087.5,0.025
8467,1088,0.025
8473,1088.5,0.025
8479,1089,0.025
8485,1089.5,0.025
8491,1090,0.025
8497,1090.5,0.025
8503,1091,0.025
8509,1091.5,0.025
8515,1092,0.025
8521,1092.5,0.025
8527,1093,0.025
8533,1093.5,0.025
8539,1094,0.025
8545,1094.5,0.025
8551,1095,0.025
8557,1095.5,0.025
8563,1096,0.025
8569,1096.5,0.025
8575,1097,0.025
8581,1097.5,0.025
8587,1098,0.025
8593,1098.5,0.025
8599,1099,0.025
8605,1099.5,0.025
8611,1100,0.025
8617,1100.5,0.025
8623,1101,0.024
8629,1101.5,0.024
8635,1102,0.024
8641,1102.5,0.024
8647,1103,0.024
8653,1103.5,0.024
8659,1104,0.024
8665,1104.5,0.025
8671,1105,0.025
8677,1105.5,0.025
8683,1106,0.025
8689,1106.5,0.025
8695,1107,0.025
8701,1107.5,0.025
8707,1108,0.025
8713,1108.5,0.025
8719,1109,0.025
8725,1109.5,0.025
8731,1110,0.025
8737,1110.5,0.025
8743,1111,0.025
8749,1111.5,0.025
8755,1112,0.025
8761,1112.5,0.025
8767,1113,0.025
8773,1113.5,0.025
8779,1114,0.025
8785,1114.5,0.025
8791,1115,0.025
8797,1115.5,0.025
8803,1116,0.025
8809,1116.5,0.025
8815,1117,0.025
8821,1117.5,0.025
8827,1118,0.025
8833,1118.5,0.025
8839,1119,0.025
8845,1119.5,0.025
8851,1120,0.025
8857,1120.5,0.025
8863,1121,0.025
8869,1121.5,0.025
8875,1122,0.025
8881,1122.5,0.025
8887,1123,0.025
8893,1123.5,0.025
8899,1124,0.025
8905,1124.5,0.025
8911,1125,0.025
8917,1125.5,0.025
8923,1126,0.025
8929,1126.5,0.025
8935,1127,0.025
8941,1127.5,0.025
8947,1128,0.025
8953,1128.5,0.025
8959,1129,0.025
8965,1129.5,0.025
8971,1130,0.025
8977,1130.5,0.025
8983,1131,0.025
8989,1131.5,0.025
8995,1132,0.025
9001,1132.5,0.025
9007,1133,0.025
9013,1133.5,0.025
9019,1134,0.025
9025,1134.5,0.025
9031,1135,0.024
9037,1135.5,0.024
9043,1136,0.024
9049,1136.5,0.024
9055,1137,0.024
9061,1137.5,0.024
9067,1138,0.024
9073,1138.5,0.024
9079,1139,0.024
9085,1139.5,0.024
9091,1140,0.024
9097,1140.5,0.024
9103,1141,0.024
9109,1141.5,0.024
9115,1142,0.024
9121,1142.5,0.024
9127,1143,0.024
9133,1143.5,0.024
9139,1144,0.024
9145,1144.5,0.024
9151,1145,0.024
9157,1145.5,0.024
9163,1146,0.024
9169,1146.5,0.024
9175,1147,0.024
9181,1147.5,0.024
9187,1148,0.024
9193,1148.5,0.024
9199,1149,0.024
9205,1149.5,0.024
9211,1150,0.024
9217,1150.5,0.024
9223,1151,0.024
9229,1151.5,0.024
9235,1152,0.024
9241,1152.5,0.024
9247,1153,0.024
9253,1153.5,0.024
9259,1154,0.024
9265,1154.5,0.024
9271,1155,0.024
9277,1155.5,0.024
9283,1156,0.024
9289,1156.5,0.023
9295,1157,0.023
9301,1157.5,0.023
9307,1158,0.023
9313,1158.5,0.023
9319,1159,0.023
9325,1159.5,0.023
9331,1160,0.023
9337,1160.5,0.023
9343,1161,0.023
9349,1161.5,0.023
9355,1162,0.023
9361,1162.5,0.023
9367,1163,0.023
9373,1163.5,0.023
9379,1164,0.023
9385,1164.5,0.023
9391,1165,0.023
9397,1165.5,0.023
9403,1166,0.023
9409,1166.5,0.023
9415,1167,0.023
9421,1167.5,0.023
9427,1168,0.023
9433,1168.5,0.023
9439,1169,0.023
9445,1169.5,0.023
9451,1170,0.023
9457,1170.5,0.023
9463,1171,0.023
9469,1171.5,0.023
9475,1172,0.023
9479,1172.5,0.023
9479,1173,0.023
