Time (s),Temperature (K),Mass (mg)
0.0,305.047,0.5
10.0,305.018,0.499
31.0,304.912,0.498
62.0,304.819,0.497
95.0,304.769,0.496
165.0,304.644,0.495
181.0,304.63,0.496
191.0,304.607,0.495
285.0,304.531,0.494
896.0,304.45,0.493
905.0,304.437,0.494
915.0,304.445,0.493
928.0,304.438,0.494
936.0,304.438,0.493
943.0,304.444,0.494
963.0,304.446,0.493
1203.996,305.0,0.492
1205.35,305.5,0.491
1206.383,306.0,0.491
1207.298,306.5,0.491
1208.205,307.0,0.491
1209.118,307.5,0.491
1209.958,308.0,0.491
1210.726,308.5,0.491
1211.467,309.0,0.491
1212.179,309.5,0.492
1212.845,310.0,0.493
1213.504,310.5,0.494
1214.158,311.0,0.494
1214.806,311.5,0.494
1215.436,312.0,0.494
1216.06,312.5,0.495
1216.681,313.0,0.495
1217.296,313.5,0.495
1217.906,314.0,0.495
1218.528,314.5,0.496
1219.15,315.0,0.496
1219.764,315.5,0.495
1220.367,316.0,0.495
1220.962,316.5,0.495
1221.571,317.0,0.495
1222.181,317.5,0.495
1222.791,318.0,0.495
1223.392,318.5,0.495
1223.987,319.0,0.495
1224.589,319.5,0.495
1225.189,320.0,0.495
1225.785,320.5,0.495
1226.384,321.0,0.495
1226.986,321.5,0.495
1227.582,322.0,0.494
1228.176,322.5,0.494
1228.764,323.0,0.494
1229.367,323.5,0.494
1229.978,324.0,0.494
1230.584,324.5,0.494
1231.187,325.0,0.494
1231.785,325.5,0.493
1232.383,326.0,0.493
1232.982,326.5,0.493
1233.575,327.0,0.493
1234.172,327.5,0.493
1234.776,328.0,0.493
1235.378,328.5,0.493
1235.977,329.0,0.493
1236.576,329.5,0.493
1237.177,330.0,0.493
1237.781,330.5,0.492
1238.379,331.0,0.492
1238.974,331.5,0.492
1239.577,332.0,0.492
1240.178,332.5,0.492
1240.775,333.0,0.492
1241.371,333.5,0.492
1241.967,334.0,0.492
1242.564,334.5,0.492
1243.164,335.0,0.492
1243.773,335.5,0.492
1244.376,336.0,0.492
1244.974,336.5,0.492
1245.568,337.0,0.492
1246.166,337.5,0.492
1246.778,338.0,0.492
1247.379,338.5,0.492
1247.976,339.0,0.491
1248.576,339.5,0.491
1249.178,340.0,0.491
1249.783,340.5,0.491
1250.386,341.0,0.491
1250.987,341.5,0.491
1251.592,342.0,0.491
1252.194,342.5,0.491
1252.79,343.0,0.491
1253.394,343.5,0.491
1254.001,344.0,0.491
1254.595,344.5,0.491
1255.193,345.0,0.491
1255.801,345.5,0.491
1256.407,346.0,0.491
1257.012,346.5,0.491
1257.609,347.0,0.491
1258.207,347.5,0.491
1258.806,348.0,0.491
1259.416,348.5,0.491
1260.03,349.0,0.491
1260.628,349.5,0.49
1261.227,350.0,0.49
1261.827,350.5,0.49
1262.426,351.0,0.49
1263.026,351.5,0.49
1263.636,352.0,0.49
1264.243,352.5,0.49
1264.846,353.0,0.49
1265.448,353.5,0.49
1266.051,354.0,0.49
1266.655,354.5,0.49
1267.258,355.0,0.49
1267.861,355.5,0.49
1268.465,356.0,0.49
1269.069,356.5,0.49
1269.676,357.0,0.49
1270.281,357.5,0.49
1270.883,358.0,0.49
1271.491,358.5,0.49
1272.099,359.0,0.49
1272.7,359.5,0.49
1273.296,360.0,0.49
1273.889,360.5,0.49
1274.492,361.0,0.49
1275.1,361.5,0.49
1275.716,362.0,0.489
1276.322,362.5,0.489
1276.919,363.0,0.489
1277.526,363.5,0.489
1278.132,364.0,0.489
1278.728,364.5,0.489
1279.327,365.0,0.489
1279.929,365.5,0.489
1280.532,366.0,0.489
1281.136,366.5,0.489
1281.741,367.0,0.489
1282.346,367.5,0.489
1282.952,368.0,0.489
1283.554,368.5,0.489
1284.157,369.0,0.489
1284.761,369.5,0.489
1285.362,370.0,0.489
1285.96,370.5,0.489
1286.56,371.0,0.489
1287.16,371.5,0.489
1287.763,372.0,0.489
1288.37,372.5,0.489
1288.98,373.0,0.489
1289.578,373.5,0.489
1290.176,374.0,0.489
1290.775,374.5,0.489
1291.373,375.0,0.489
1291.97,375.5,0.489
1292.574,376.0,0.489
1293.18,376.5,0.489
1293.789,377.0,0.489
1294.391,377.5,0.489
1294.988,378.0,0.489
1295.591,378.5,0.489
1296.197,379.0,0.489
1296.809,379.5,0.489
1297.416,380.0,0.489
1298.022,380.5,0.489
1298.623,381.0,0.489
1299.224,381.5,0.489
1299.828,382.0,0.489
1300.43,382.5,0.489
1301.032,383.0,0.489
1301.634,383.5,0.489
1302.233,384.0,0.489
1302.828,384.5,0.489
1303.424,385.0,0.489
1304.021,385.5,0.489
1304.627,386.0,0.489
1305.232,386.5,0.489
1305.835,387.0,0.489
1306.442,387.5,0.489
1307.05,388.0,0.489
1307.642,388.5,0.489
1308.235,389.0,0.489
1308.829,389.5,0.489
1309.429,390.0,0.489
1310.033,390.5,0.489
1310.635,391.0,0.489
1311.236,391.5,0.489
1311.834,392.0,0.489
1312.435,392.5,0.489
1313.037,393.0,0.489
1313.641,393.5,0.489
1314.242,394.0,0.489
1314.838,394.5,0.489
1315.44,395.0,0.489
1316.043,395.5,0.489
1316.647,396.0,0.489
1317.246,396.5,0.489
1317.839,397.0,0.489
1318.432,397.5,0.489
1319.025,398.0,0.489
1319.622,398.5,0.489
1320.222,399.0,0.489
1320.825,399.5,0.489
1321.427,400.0,0.489
1322.028,400.5,0.489
1322.629,401.0,0.489
1323.23,401.5,0.489
1323.828,402.0,0.489
1324.42,402.5,0.489
1325.011,403.0,0.489
1325.614,403.5,0.489
1326.218,404.0,0.489
1326.822,404.5,0.489
1327.416,405.0,0.489
1328.005,405.5,0.489
1328.602,406.0,0.489
1329.202,406.5,0.489
1329.806,407.0,0.489
1330.41,407.5,0.489
1331.014,408.0,0.489
1331.606,408.5,0.489
1332.198,409.0,0.489
1332.791,409.5,0.489
1333.385,410.0,0.489
1333.979,410.5,0.489
1334.581,411.0,0.489
1335.179,411.5,0.489
1335.769,412.0,0.489
1336.362,412.5,0.489
1336.957,413.0,0.489
1337.559,413.5,0.489
1338.159,414.0,0.489
1338.753,414.5,0.489
1339.347,415.0,0.489
1339.941,415.5,0.489
1340.526,416.0,0.489
1341.115,416.5,0.489
1341.727,417.0,0.489
1342.328,417.5,0.489
1342.92,418.0,0.489
1343.521,418.5,0.489
1344.122,419.0,0.489
1344.713,419.5,0.489
1345.307,420.0,0.489
1345.904,420.5,0.488
1346.504,421.0,0.488
1347.102,421.5,0.488
1347.694,422.0,0.488
1348.281,422.5,0.488
1348.863,423.0,0.488
1349.455,423.5,0.488
1350.051,424.0,0.488
1350.64,424.5,0.488
1351.232,425.0,0.488
1351.827,425.5,0.488
1352.428,426.0,0.488
1353.031,426.5,0.488
1353.622,427.0,0.488
1354.214,427.5,0.488
1354.809,428.0,0.488
1355.405,428.5,0.488
1356.001,429.0,0.488
1356.594,429.5,0.488
1357.186,430.0,0.488
1357.779,430.5,0.488
1358.367,431.0,0.488
1358.952,431.5,0.488
1359.548,432.0,0.488
1360.146,432.5,0.488
1360.743,433.0,0.488
1361.334,433.5,0.488
1361.92,434.0,0.488
1362.511,434.5,0.488
1363.104,435.0,0.488
1363.7,435.5,0.488
1364.292,436.0,0.488
1364.881,436.5,0.488
1365.474,437.0,0.488
1366.068,437.5,0.488
1366.659,438.0,0.488
1367.251,438.5,0.488
1367.847,439.0,0.488
1368.439,439.5,0.488
1369.029,440.0,0.488
1369.615,440.5,0.488
1370.203,441.0,0.488
1370.794,441.5,0.488
1371.387,442.0,0.488
1371.98,442.5,0.488
1372.572,443.0,0.488
1373.162,443.5,0.488
1373.749,444.0,0.488
1374.34,444.5,0.488
1374.933,445.0,0.488
1375.522,445.5,0.488
1376.11,446.0,0.488
1376.704,446.5,0.488
1377.293,447.0,0.488
1377.875,447.5,0.488
1378.467,448.0,0.488
1379.062,448.5,0.488
1379.654,449.0,0.488
1380.243,449.5,0.488
1380.826,450.0,0.488
1381.421,450.5,0.488
1382.021,451.0,0.488
1382.597,451.5,0.487
1383.179,452.0,0.487
1383.772,452.5,0.487
1384.358,453.0,0.487
1384.938,453.5,0.487
1385.53,454.0,0.487
1386.123,454.5,0.487
1386.72,455.0,0.487
1387.308,455.5,0.487
1387.89,456.0,0.487
1388.479,456.5,0.487
1389.069,457.0,0.487
1389.648,457.5,0.487
1390.234,458.0,0.487
1390.83,458.5,0.487
1391.419,459.0,0.487
1392.005,459.5,0.487
1392.592,460.0,0.487
1393.18,460.5,0.487
1393.769,461.0,0.487
1394.353,461.5,0.487
1394.933,462.0,0.487
1395.524,462.5,0.486
1396.114,463.0,0.486
1396.699,463.5,0.486
1397.282,464.0,0.486
1397.865,464.5,0.486
1398.455,465.0,0.486
1399.047,465.5,0.486
1399.629,466.0,0.486
1400.213,466.5,0.486
1400.802,467.0,0.486
1401.39,467.5,0.486
1401.977,468.0,0.486
1402.561,468.5,0.486
1403.146,469.0,0.486
1403.728,469.5,0.486
1404.314,470.0,0.486
1404.901,470.5,0.486
1405.489,471.0,0.486
1406.076,471.5,0.485
1406.651,472.0,0.485
1407.231,472.5,0.485
1407.816,473.0,0.485
1408.404,473.5,0.485
1408.992,474.0,0.485
1409.575,474.5,0.485
1410.159,475.0,0.485
1410.75,475.5,0.485
1411.334,476.0,0.485
1411.914,476.5,0.485
1412.503,477.0,0.485
1413.093,477.5,0.485
1413.68,478.0,0.484
1414.263,478.5,0.484
1414.841,479.0,0.484
1415.429,479.5,0.484
1416.022,480.0,0.484
1416.602,480.5,0.484
1417.183,481.0,0.484
1417.765,481.5,0.484
1418.351,482.0,0.484
1418.94,482.5,0.484
1419.52,483.0,0.484
1420.1,483.5,0.484
1420.686,484.0,0.483
1421.269,484.5,0.483
1421.849,485.0,0.483
1422.435,485.5,0.483
1423.023,486.0,0.483
1423.61,486.5,0.483
1424.194,487.0,0.483
1424.77,487.5,0.483
1425.354,488.0,0.483
1425.941,488.5,0.483
1426.526,489.0,0.483
1427.109,489.5,0.483
1427.69,490.0,0.482
1428.271,490.5,0.482
1428.853,491.0,0.482
1429.44,491.5,0.482
1430.028,492.0,0.482
1430.611,492.5,0.482
1431.196,493.0,0.482
1431.781,493.5,0.482
1432.364,494.0,0.482
1432.946,494.5,0.481
1433.532,495.0,0.481
1434.116,495.5,0.481
1434.698,496.0,0.481
1435.279,496.5,0.481
1435.861,497.0,0.481
1436.44,497.5,0.481
1437.019,498.0,0.481
1437.604,498.5,0.481
1438.188,499.0,0.481
1438.77,499.5,0.48
1439.351,500.0,0.48
1439.933,500.5,0.48
1440.524,501.0,0.48
1441.114,501.5,0.48
1441.691,502.0,0.48
1442.274,502.5,0.48
1442.863,503.0,0.48
1443.441,503.5,0.48
1444.015,504.0,0.479
1444.607,504.5,0.479
1445.193,505.0,0.479
1445.769,505.5,0.479
1446.349,506.0,0.479
1446.932,506.5,0.479
1447.521,507.0,0.479
1448.107,507.5,0.479
1448.683,508.0,0.478
1449.263,508.5,0.478
1449.848,509.0,0.478
1450.428,509.5,0.478
1451.006,510.0,0.478
1451.6,510.5,0.478
1452.189,511.0,0.478
1452.769,511.5,0.477
1453.35,512.0,0.477
1453.93,512.5,0.477
1454.513,513.0,0.477
1455.096,513.5,0.477
1455.68,514.0,0.476
1456.265,514.5,0.476
1456.85,515.0,0.476
1457.432,515.5,0.476
1458.013,516.0,0.476
1458.599,516.5,0.476
1459.182,517.0,0.476
1459.76,517.5,0.475
1460.345,518.0,0.475
1460.935,518.5,0.475
1461.514,519.0,0.475
1462.093,519.5,0.475
1462.684,520.0,0.475
1463.27,520.5,0.475
1463.852,521.0,0.474
1464.436,521.5,0.474
1465.02,522.0,0.474
1465.601,522.5,0.474
1466.183,523.0,0.474
1466.767,523.5,0.473
1467.35,524.0,0.473
1467.933,524.5,0.473
1468.518,525.0,0.473
1469.101,525.5,0.473
1469.682,526.0,0.472
1470.263,526.5,0.472
1470.844,527.0,0.472
1471.431,527.5,0.472
1472.02,528.0,0.471
1472.605,528.5,0.471
1473.188,529.0,0.471
1473.769,529.5,0.471
1474.353,530.0,0.471
1474.939,530.5,0.47
1475.52,531.0,0.47
1476.101,531.5,0.47
1476.689,532.0,0.469
1477.273,532.5,0.469
1477.855,533.0,0.469
1478.44,533.5,0.469
1479.027,534.0,0.469
1479.605,534.5,0.468
1480.184,535.0,0.468
1480.765,535.5,0.468
1481.353,536.0,0.468
1481.945,536.5,0.467
1482.525,537.0,0.467
1483.103,537.5,0.467
1483.683,538.0,0.466
1484.266,538.5,0.466
1484.853,539.0,0.466
1485.442,539.5,0.466
1486.03,540.0,0.465
1486.608,540.5,0.465
1487.191,541.0,0.465
1487.783,541.5,0.464
1488.365,542.0,0.464
1488.941,542.5,0.464
1489.525,543.0,0.463
1490.109,543.5,0.463
1490.696,544.0,0.463
1491.284,544.5,0.463
1491.874,545.0,0.462
1492.459,545.5,0.462
1493.041,546.0,0.462
1493.615,546.5,0.461
1494.195,547.0,0.461
1494.784,547.5,0.461
1495.371,548.0,0.461
1495.956,548.5,0.46
1496.537,549.0,0.46
1497.12,549.5,0.46
1497.706,550.0,0.459
1498.292,550.5,0.459
1498.877,551.0,0.458
1499.465,551.5,0.458
1500.052,552.0,0.458
1500.634,552.5,0.457
1501.217,553.0,0.457
1501.8,553.5,0.456
1502.386,554.0,0.456
1502.973,554.5,0.456
1503.556,555.0,0.455
1504.139,555.5,0.455
1504.724,556.0,0.455
1505.307,556.5,0.455
1505.888,557.0,0.454
1506.474,557.5,0.454
1507.061,558.0,0.453
1507.647,558.5,0.453
1508.234,559.0,0.453
1508.823,559.5,0.452
1509.41,560.0,0.452
1509.996,560.5,0.451
1510.579,561.0,0.451
1511.163,561.5,0.451
1511.751,562.0,0.45
1512.335,562.5,0.45
1512.917,563.0,0.449
1513.506,563.5,0.449
1514.095,564.0,0.449
1514.68,564.5,0.448
1515.264,565.0,0.448
1515.848,565.5,0.447
1516.435,566.0,0.447
1517.022,566.5,0.446
1517.609,567.0,0.446
1518.196,567.5,0.446
1518.785,568.0,0.445
1519.37,568.5,0.445
1519.953,569.0,0.444
1520.543,569.5,0.443
1521.132,570.0,0.443
1521.719,570.5,0.443
1522.303,571.0,0.443
1522.886,571.5,0.442
1523.467,572.0,0.442
1524.05,572.5,0.441
1524.643,573.0,0.44
1525.234,573.5,0.44
1525.822,574.0,0.44
1526.408,574.5,0.44
1526.992,575.0,0.439
1527.577,575.5,0.438
1528.162,576.0,0.438
1528.749,576.5,0.437
1529.337,577.0,0.437
1529.927,577.5,0.436
1530.514,578.0,0.436
1531.1,578.5,0.436
1531.685,579.0,0.435
1532.272,579.5,0.435
1532.862,580.0,0.434
1533.448,580.5,0.434
1534.034,581.0,0.433
1534.628,581.5,0.432
1535.218,582.0,0.432
1535.802,582.5,0.431
1536.39,583.0,0.431
1536.98,583.5,0.43
1537.572,584.0,0.429
1538.162,584.5,0.429
1538.746,585.0,0.428
1539.33,585.5,0.428
1539.916,586.0,0.428
1540.505,586.5,0.427
1541.096,587.0,0.427
1541.688,587.5,0.426
1542.276,588.0,0.426
1542.86,588.5,0.425
1543.45,589.0,0.425
1544.041,589.5,0.424
1544.627,590.0,0.423
1545.213,590.5,0.423
1545.799,591.0,0.422
1546.385,591.5,0.422
1546.971,592.0,0.421
1547.564,592.5,0.42
1548.158,593.0,0.42
1548.752,593.5,0.419
1549.342,594.0,0.418
1549.928,594.5,0.417
1550.518,595.0,0.416
1551.108,595.5,0.416
1551.701,596.0,0.415
1552.29,596.5,0.415
1552.875,597.0,0.414
1553.465,597.5,0.414
1554.056,598.0,0.413
1554.653,598.5,0.412
1555.244,599.0,0.412
1555.828,599.5,0.411
1556.416,600.0,0.41
1557.006,600.5,0.409
1557.597,601.0,0.408
1558.187,601.5,0.408
1558.773,602.0,0.407
1559.367,602.5,0.407
1559.964,603.0,0.406
1560.554,603.5,0.405
1561.144,604.0,0.404
1561.732,604.5,0.403
1562.323,605.0,0.403
1562.917,605.5,0.402
1563.505,606.0,0.401
1564.092,606.5,0.4
1564.682,607.0,0.399
1565.275,607.5,0.398
1565.869,608.0,0.397
1566.459,608.5,0.397
1567.048,609.0,0.396
1567.645,609.5,0.395
1568.243,610.0,0.394
1568.841,610.5,0.393
1569.429,611.0,0.392
1570.013,611.5,0.391
1570.61,612.0,0.39
1571.206,612.5,0.39
1571.801,613.0,0.388
1572.395,613.5,0.388
1572.989,614.0,0.387
1573.574,614.5,0.386
1574.161,615.0,0.385
1574.752,615.5,0.383
1575.343,616.0,0.383
1575.935,616.5,0.382
1576.53,617.0,0.381
1577.124,617.5,0.38
1577.716,618.0,0.379
1578.311,618.5,0.378
1578.909,619.0,0.377
1579.498,619.5,0.376
1580.086,620.0,0.375
1580.682,620.5,0.374
1581.277,621.0,0.372
1581.873,621.5,0.371
1582.459,622.0,0.371
1583.044,622.5,0.37
1583.645,623.0,0.369
1584.244,623.5,0.368
1584.839,624.0,0.366
1585.436,624.5,0.365
1586.032,625.0,0.364
1586.619,625.5,0.363
1587.208,626.0,0.362
1587.803,626.5,0.36
1588.397,627.0,0.359
1588.99,627.5,0.358
1589.584,628.0,0.357
1590.179,628.5,0.356
1590.774,629.0,0.354
1591.373,629.5,0.353
1591.975,630.0,0.352
1592.566,630.5,0.351
1593.158,631.0,0.35
1593.756,631.5,0.348
1594.349,632.0,0.347
1594.939,632.5,0.346
1595.537,633.0,0.344
1596.135,633.5,0.343
1596.73,634.0,0.342
1597.326,634.5,0.34
1597.924,635.0,0.339
1598.52,635.5,0.338
1599.116,636.0,0.337
1599.712,636.5,0.336
1600.306,637.0,0.334
1600.898,637.5,0.333
1601.496,638.0,0.332
1602.096,638.5,0.33
1602.697,639.0,0.329
1603.293,639.5,0.327
1603.884,640.0,0.326
1604.482,640.5,0.325
1605.081,641.0,0.323
1605.679,641.5,0.322
1606.277,642.0,0.32
1606.875,642.5,0.319
1607.471,643.0,0.318
1608.065,643.5,0.316
1608.658,644.0,0.315
1609.255,644.5,0.313
1609.86,645.0,0.312
1610.46,645.5,0.311
1611.059,646.0,0.309
1611.654,646.5,0.308
1612.248,647.0,0.306
1612.84,647.5,0.304
1613.439,648.0,0.303
1614.041,648.5,0.302
1614.646,649.0,0.3
1615.243,649.5,0.299
1615.831,650.0,0.297
1616.429,650.5,0.296
1617.032,651.0,0.294
1617.63,651.5,0.293
1618.227,652.0,0.291
1618.825,652.5,0.29
1619.424,653.0,0.288
1620.024,653.5,0.286
1620.62,654.0,0.285
1621.217,654.5,0.283
1621.816,655.0,0.282
1622.417,655.5,0.28
1623.02,656.0,0.279
1623.62,656.5,0.277
1624.218,657.0,0.275
1624.814,657.5,0.274
1625.415,658.0,0.272
1626.018,658.5,0.27
1626.616,659.0,0.269
1627.217,659.5,0.267
1627.824,660.0,0.266
1628.426,660.5,0.264
1629.026,661.0,0.262
1629.625,661.5,0.26
1630.226,662.0,0.258
1630.831,662.5,0.257
1631.433,663.0,0.255
1632.034,663.5,0.253
1632.633,664.0,0.251
1633.233,664.5,0.249
1633.835,665.0,0.247
1634.437,665.5,0.246
1635.04,666.0,0.244
1635.646,666.5,0.242
1636.251,667.0,0.24
1636.855,667.5,0.238
1637.449,668.0,0.237
1638.041,668.5,0.235
1638.64,669.0,0.232
1639.24,669.5,0.23
1639.842,670.0,0.228
1640.447,670.5,0.227
1641.053,671.0,0.225
1641.661,671.5,0.223
1642.265,672.0,0.221
1642.865,672.5,0.219
1643.461,673.0,0.217
1644.058,673.5,0.215
1644.666,674.0,0.212
1645.271,674.5,0.21
1645.872,675.0,0.208
1646.473,675.5,0.206
1647.074,676.0,0.204
1647.682,676.5,0.202
1648.287,677.0,0.2
1648.889,677.5,0.197
1649.493,678.0,0.196
1650.097,678.5,0.194
1650.701,679.0,0.191
1651.302,679.5,0.189
1651.9,680.0,0.187
1652.51,680.5,0.185
1653.119,681.0,0.183
1653.713,681.5,0.181
1654.311,682.0,0.179
1654.912,682.5,0.176
1655.519,683.0,0.174
1656.125,683.5,0.173
1656.723,684.0,0.17
1657.326,684.5,0.168
1657.932,685.0,0.166
1658.538,685.5,0.164
1659.144,686.0,0.162
1659.75,686.5,0.16
1660.354,687.0,0.158
1660.957,687.5,0.156
1661.559,688.0,0.154
1662.16,688.5,0.153
1662.758,689.0,0.151
1663.361,689.5,0.149
1663.967,690.0,0.147
1664.569,690.5,0.145
1665.171,691.0,0.144
1665.776,691.5,0.142
1666.377,692.0,0.141
1666.976,692.5,0.139
1667.58,693.0,0.138
1668.185,693.5,0.137
1668.79,694.0,0.135
1669.395,694.5,0.134
1670.0,695.0,0.132
1670.6,695.5,0.131
1671.202,696.0,0.13
1671.808,696.5,0.129
1672.417,697.0,0.128
1673.027,697.5,0.127
1673.624,698.0,0.126
1674.222,698.5,0.126
1674.823,699.0,0.124
1675.432,699.5,0.124
1676.043,700.0,0.123
1676.645,700.5,0.122
1677.246,701.0,0.122
1677.846,701.5,0.121
1678.447,702.0,0.121
1679.048,702.5,0.12
1679.659,703.0,0.119
1680.265,703.5,0.119
1680.863,704.0,0.119
1681.467,704.5,0.119
1682.072,705.0,0.118
1682.676,705.5,0.117
1683.284,706.0,0.117
1683.895,706.5,0.117
1684.502,707.0,0.116
1685.108,707.5,0.116
1685.705,708.0,0.116
1686.31,708.5,0.116
1686.923,709.0,0.116
1687.528,709.5,0.115
1688.132,710.0,0.115
1688.736,710.5,0.115
1689.339,711.0,0.115
1689.941,711.5,0.115
1690.55,712.0,0.114
1691.158,712.5,0.114
1691.762,713.0,0.114
1692.366,713.5,0.114
1692.971,714.0,0.114
1693.576,714.5,0.114
1694.18,715.0,0.114
1694.781,715.5,0.113
1695.391,716.0,0.113
1696.006,716.5,0.113
1696.607,717.0,0.113
1697.21,717.5,0.113
1697.819,718.0,0.113
1698.424,718.5,0.113
1699.029,719.0,0.112
1699.631,719.5,0.112
1700.236,720.0,0.112
1700.847,720.5,0.112
1701.45,721.0,0.112
1702.05,721.5,0.111
1702.665,722.0,0.111
1703.27,722.5,0.111
1703.863,723.0,0.111
1704.469,723.5,0.111
1705.079,724.0,0.111
1705.692,724.5,0.111
1706.3,725.0,0.111
1706.901,725.5,0.11
1707.504,726.0,0.11
1708.108,726.5,0.11
1708.715,727.0,0.11
1709.324,727.5,0.11
1709.935,728.0,0.11
1710.542,728.5,0.109
1711.149,729.0,0.109
1711.759,729.5,0.109
1712.358,730.0,0.109
1712.951,730.5,0.109
1713.56,731.0,0.109
1714.169,731.5,0.109
1714.773,732.0,0.108
1715.38,732.5,0.108
1715.989,733.0,0.108
1716.6,733.5,0.108
1717.209,734.0,0.108
1717.813,734.5,0.108
1718.417,735.0,0.108
1719.021,735.5,0.108
1719.631,736.0,0.107
1720.24,736.5,0.107
1720.847,737.0,0.107
1721.449,737.5,0.107
1722.05,738.0,0.107
1722.662,738.5,0.107
1723.274,739.0,0.107
1723.885,739.5,0.107
1724.492,740.0,0.107
1725.098,740.5,0.106
1725.709,741.0,0.106
1726.312,741.5,0.106
1726.907,742.0,0.106
1727.521,742.5,0.106
1728.135,743.0,0.106
1728.737,743.5,0.105
1729.346,744.0,0.105
1729.958,744.5,0.105
1730.557,745.0,0.105
1731.158,745.5,0.105
1731.769,746.0,0.105
1732.379,746.5,0.105
1732.988,747.0,0.105
1733.597,747.5,0.104
1734.207,748.0,0.104
1734.819,748.5,0.104
1735.426,749.0,0.104
1736.031,749.5,0.104
1736.633,750.0,0.104
1737.236,750.5,0.104
1737.84,751.0,0.104
1738.448,751.5,0.104
1739.058,752.0,0.104
1739.67,752.5,0.103
1740.278,753.0,0.103
1740.883,753.5,0.103
1741.487,754.0,0.103
1742.092,754.5,0.103
1742.7,755.0,0.103
1743.308,755.5,0.103
1743.916,756.0,0.103
1744.52,756.5,0.102
1745.126,757.0,0.102
1745.741,757.5,0.102
1746.355,758.0,0.102
1746.966,758.5,0.102
1747.566,759.0,0.102
1748.168,759.5,0.102
1748.777,760.0,0.102
1749.383,760.5,0.102
1749.987,761.0,0.102
1750.593,761.5,0.101
1751.201,762.0,0.101
1751.81,762.5,0.101
1752.42,763.0,0.101
1753.03,763.5,0.101
1753.64,764.0,0.101
1754.248,764.5,0.101
1754.854,765.0,0.101
1755.459,765.5,0.101
1756.065,766.0,0.101
1756.666,766.5,0.101
1757.27,767.0,0.101
1757.879,767.5,0.1
1758.491,768.0,0.1
1759.103,768.5,0.1
1759.712,769.0,0.1
1760.315,769.5,0.1
1760.915,770.0,0.1
1761.525,770.5,0.1
1762.136,771.0,0.1
1762.743,771.5,0.1
1763.353,772.0,0.1
1763.967,772.5,0.1
1764.578,773.0,0.099
1765.185,773.5,0.099
1765.784,774.0,0.099
1766.39,774.5,0.099
1766.999,775.0,0.099
1767.601,775.5,0.099
1768.205,776.0,0.099
1768.812,776.5,0.099
1769.423,777.0,0.099
1770.036,777.5,0.099
1770.634,778.0,0.099
1771.238,778.5,0.099
1771.853,779.0,0.099
1772.455,779.5,0.099
1773.055,780.0,0.098
1773.665,780.5,0.098
1774.278,781.0,0.098
1774.892,781.5,0.098
1775.497,782.0,0.098
1776.1,782.5,0.098
1776.706,783.0,0.098
1777.312,783.5,0.098
1777.919,784.0,0.098
1778.529,784.5,0.098
1779.137,785.0,0.098
1779.74,785.5,0.098
1780.347,786.0,0.098
1780.957,786.5,0.098
1781.568,787.0,0.097
1782.179,787.5,0.097
1782.79,788.0,0.097
1783.399,788.5,0.097
1784.007,789.0,0.097
1784.607,789.5,0.097
1785.214,790.0,0.097
1785.833,790.5,0.097
1786.442,791.0,0.097
1787.048,791.5,0.097
1787.661,792.0,0.097
1788.27,792.5,0.097
1788.871,793.0,0.097
1789.475,793.5,0.097
1790.081,794.0,0.097
1790.694,794.5,0.097
1791.303,795.0,0.097
1791.909,795.5,0.096
1792.51,796.0,0.096
1793.112,796.5,0.096
1793.722,797.0,0.096
1794.331,797.5,0.096
1794.939,798.0,0.096
1795.549,798.5,0.096
1796.156,799.0,0.096
1796.756,799.5,0.096
1797.364,800.0,0.096
1797.976,800.5,0.096
1798.591,801.0,0.096
1799.201,801.5,0.096
1799.799,802.0,0.096
1800.404,802.5,0.096
1801.013,803.0,0.096
1801.617,803.5,0.096
1802.223,804.0,0.096
1802.832,804.5,0.095
1803.441,805.0,0.095
1804.051,805.5,0.095
1804.658,806.0,0.095
1805.267,806.5,0.095
1805.88,807.0,0.095
1806.486,807.5,0.095
1807.091,808.0,0.095
1807.701,808.5,0.095
1808.309,809.0,0.095
1808.914,809.5,0.095
1809.523,810.0,0.095
1810.131,810.5,0.095
1810.739,811.0,0.095
1811.344,811.5,0.095
1811.948,812.0,0.095
1812.558,812.5,0.095
1813.167,813.0,0.095
1813.772,813.5,0.094
1814.38,814.0,0.094
1814.99,814.5,0.094
1815.597,815.0,0.094
1816.205,815.5,0.094
1816.814,816.0,0.094
1817.421,816.5,0.094
1818.027,817.0,0.094
1818.638,817.5,0.094
1819.246,818.0,0.094
1819.85,818.5,0.094
1820.454,819.0,0.094
1821.057,819.5,0.094
1821.666,820.0,0.094
1822.275,820.5,0.094
1822.883,821.0,0.094
1823.489,821.5,0.094
1824.093,822.0,0.094
1824.697,822.5,0.094
1825.307,823.0,0.094
1825.925,823.5,0.094
1826.536,824.0,0.093
1827.145,824.5,0.093
1827.75,825.0,0.093
1828.353,825.5,0.093
1828.955,826.0,0.093
1829.565,826.5,0.093
1830.173,827.0,0.093
1830.775,827.5,0.093
1831.384,828.0,0.093
1831.996,828.5,0.093
1832.604,829.0,0.093
1833.212,829.5,0.093
1833.822,830.0,0.093
1834.43,830.5,0.093
1835.038,831.0,0.093
1835.648,831.5,0.093
1836.255,832.0,0.093
1836.859,832.5,0.093
1837.465,833.0,0.093
1838.072,833.5,0.093
1838.683,834.0,0.093
1839.293,834.5,0.093
1839.902,835.0,0.092
1840.505,835.5,0.092
1841.109,836.0,0.092
1841.718,836.5,0.092
1842.322,837.0,0.092
1842.921,837.5,0.092
1843.53,838.0,0.092
1844.14,838.5,0.092
1844.75,839.0,0.092
1845.358,839.5,0.092
1845.966,840.0,0.092
1846.571,840.5,0.092
1847.177,841.0,0.092
1847.785,841.5,0.092
1848.398,842.0,0.092
1849.013,842.5,0.092
1849.612,843.0,0.092
1850.213,843.5,0.092
1850.819,844.0,0.092
1851.429,844.5,0.092
1852.04,845.0,0.092
1852.646,845.5,0.092
1853.252,846.0,0.092
1853.859,846.5,0.092
1854.469,847.0,0.092
1855.078,847.5,0.092
1855.682,848.0,0.091
1856.287,848.5,0.091
1856.894,849.0,0.091
1857.504,849.5,0.091
1858.113,850.0,0.091
1858.717,850.5,0.091
1859.322,851.0,0.091
1859.93,851.5,0.091
1860.537,852.0,0.091
1861.145,852.5,0.091
1861.755,853.0,0.091
1862.36,853.5,0.091
1862.963,854.0,0.091
1863.575,854.5,0.091
1864.188,855.0,0.091
1864.8,855.5,0.091
1865.407,856.0,0.091
1866.012,856.5,0.091
1866.623,857.0,0.091
1867.231,857.5,0.091
1867.837,858.0,0.091
1868.442,858.5,0.091
1869.047,859.0,0.091
1869.653,859.5,0.091
1870.258,860.0,0.091
1870.865,860.5,0.091
1871.472,861.0,0.091
1872.078,861.5,0.091
1872.684,862.0,0.091
1873.289,862.5,0.091
1873.895,863.0,0.09
1874.507,863.5,0.09
1875.119,864.0,0.09
1875.723,864.5,0.09
1876.328,865.0,0.09
1876.936,865.5,0.09
1877.544,866.0,0.09
1878.151,866.5,0.09
1878.749,867.0,0.09
1879.36,867.5,0.09
1879.98,868.0,0.09
1880.58,868.5,0.09
1881.182,869.0,0.09
1881.791,869.5,0.09
1882.397,870.0,0.09
1883.001,870.5,0.09
1883.603,871.0,0.09
1884.208,871.5,0.09
1884.819,872.0,0.09
1885.423,872.5,0.09
1886.024,873.0,0.09
1886.634,873.5,0.09
1887.24,874.0,0.09
1887.838,874.5,0.09
1888.447,875.0,0.09
1889.059,875.5,0.09
1889.665,876.0,0.089
1890.269,876.5,0.089
1890.873,877.0,0.089
1891.479,877.5,0.089
1892.085,878.0,0.089
1892.687,878.5,0.089
1893.294,879.0,0.089
1893.906,879.5,0.089
1894.512,880.0,0.089
1895.117,880.5,0.089
1895.719,881.0,0.089
1896.325,881.5,0.089
1896.933,882.0,0.089
1897.537,882.5,0.089
1898.142,883.0,0.089
1898.752,883.5,0.089
1899.356,884.0,0.089
1899.956,884.5,0.089
1900.554,885.0,0.089
1901.157,885.5,0.089
1901.772,886.0,0.089
1902.379,886.5,0.089
1902.98,887.0,0.089
1903.584,887.5,0.088
1904.189,888.0,0.088
1904.794,888.5,0.088
1905.399,889.0,0.088
1906.002,889.5,0.088
1906.612,890.0,0.088
1907.22,890.5,0.088
1907.823,891.0,0.088
1908.428,891.5,0.088
1909.035,892.0,0.088
1909.643,892.5,0.088
1910.247,893.0,0.088
1910.848,893.5,0.088
1911.451,894.0,0.088
1912.056,894.5,0.088
1912.662,895.0,0.088
1913.271,895.5,0.088
1913.884,896.0,0.088
1914.485,896.5,0.088
1915.085,897.0,0.088
1915.694,897.5,0.088
1916.297,898.0,0.088
1916.893,898.5,0.088
1917.502,899.0,0.088
1918.113,899.5,0.088
1918.715,900.0,0.088
1919.318,900.5,0.088
1919.921,901.0,0.088
1920.525,901.5,0.088
1921.129,902.0,0.088
1921.738,902.5,0.088
1922.342,903.0,0.088
1922.941,903.5,0.088
1923.551,904.0,0.088
1924.161,904.5,0.088
1924.767,905.0,0.088
1925.37,905.5,0.088
1925.971,906.0,0.088
1926.572,906.5,0.088
1927.173,907.0,0.088
1927.775,907.5,0.087
1928.382,908.0,0.087
1928.993,908.5,0.087
1929.598,909.0,0.087
1930.203,909.5,0.087
1930.807,910.0,0.087
1931.417,910.5,0.087
1932.029,911.0,0.087
1932.624,911.5,0.087
1933.223,912.0,0.087
1933.829,912.5,0.087
1934.437,913.0,0.087
1935.046,913.5,0.087
1935.644,914.0,0.087
1936.245,914.5,0.087
1936.848,915.0,0.087
1937.454,915.5,0.087
1938.061,916.0,0.087
1938.668,916.5,0.087
1939.273,917.0,0.087
1939.875,917.5,0.087
1940.479,918.0,0.087
1941.084,918.5,0.087
1941.685,919.0,0.087
1942.288,919.5,0.087
1942.895,920.0,0.087
1943.497,920.5,0.087
1944.099,921.0,0.087
1944.705,921.5,0.087
1945.308,922.0,0.087
1945.911,922.5,0.087
1946.516,923.0,0.086
1947.122,923.5,0.086
1947.727,924.0,0.086
1948.331,924.5,0.086
1948.935,925.0,0.086
1949.543,925.5,0.086
1950.15,926.0,0.086
1950.748,926.5,0.086
1951.351,927.0,0.086
1951.959,927.5,0.086
1952.564,928.0,0.086
1953.168,928.5,0.086
1953.769,929.0,0.086
1954.373,929.5,0.086
1954.979,930.0,0.086
1955.583,930.5,0.086
1956.187,931.0,0.086
1956.794,931.5,0.086
1957.398,932.0,0.086
1958.001,932.5,0.086
1958.609,933.0,0.086
1959.215,933.5,0.086
1959.817,934.0,0.086
1960.419,934.5,0.086
1961.022,935.0,0.086
1961.63,935.5,0.086
1962.236,936.0,0.086
1962.837,936.5,0.086
1963.436,937.0,0.086
1964.036,937.5,0.086
1964.639,938.0,0.086
1965.243,938.5,0.086
1965.847,939.0,0.086
1966.45,939.5,0.086
1967.053,940.0,0.086
1967.653,940.5,0.086
1968.255,941.0,0.086
1968.859,941.5,0.086
1969.468,942.0,0.086
1970.077,942.5,0.086
1970.678,943.0,0.086
1971.279,943.5,0.086
1971.88,944.0,0.086
1972.483,944.5,0.086
1973.085,945.0,0.085
1973.685,945.5,0.085
1974.29,946.0,0.085
1974.903,946.5,0.085
1975.509,947.0,0.085
1976.114,947.5,0.085
1976.718,948.0,0.085
1977.324,948.5,0.085
1977.93,949.0,0.085
1978.527,949.5,0.085
1979.126,950.0,0.085
1979.738,950.5,0.085
1980.345,951.0,0.085
1980.947,951.5,0.085
1981.549,952.0,0.085
1982.152,952.5,0.085
1982.758,953.0,0.085
1983.358,953.5,0.085
1983.956,954.0,0.085
1984.566,954.5,0.085
1985.174,955.0,0.085
1985.775,955.5,0.085
1986.374,956.0,0.085
1986.972,956.5,0.085
1987.576,957.0,0.085
1988.181,957.5,0.085
1988.789,958.0,0.085
1989.392,958.5,0.085
1989.994,959.0,0.085
1990.603,959.5,0.085
1991.209,960.0,0.085
1991.809,960.5,0.085
1992.409,961.0,0.085
1993.008,961.5,0.085
1993.61,962.0,0.085
1994.212,962.5,0.085
1994.813,963.0,0.085
1995.423,963.5,0.085
1996.035,964.0,0.085
1996.632,964.5,0.085
1997.23,965.0,0.085
1997.831,965.5,0.085
1998.434,966.0,0.085
1999.037,966.5,0.085
1999.641,967.0,0.084
2000.242,967.5,0.084
2000.843,968.0,0.084
2001.448,968.5,0.084
2002.055,969.0,0.084
2002.658,969.5,0.084
2003.263,970.0,0.084
2003.872,970.5,0.084
2004.473,971.0,0.084
2005.073,971.5,0.084
2005.685,972.0,0.084
2006.288,972.5,0.084
2006.881,973.0,0.084
2007.486,973.5,0.084
2008.093,974.0,0.084
2008.694,974.5,0.084
2009.297,975.0,0.084
2009.902,975.5,0.084
2010.499,976.0,0.084
2011.096,976.5,0.084
2011.694,977.0,0.084
2012.293,977.5,0.084
2012.894,978.0,0.084
2013.5,978.5,0.084
2014.106,979.0,0.084
2014.709,979.5,0.084
2015.31,980.0,0.084
2015.908,980.5,0.084
2016.516,981.0,0.084
2017.125,981.5,0.084
2017.726,982.0,0.084
2018.328,982.5,0.084
2018.93,983.0,0.084
2019.529,983.5,0.084
2020.129,984.0,0.084
2020.734,984.5,0.084
2021.337,985.0,0.084
2021.94,985.5,0.084
2022.539,986.0,0.084
2023.139,986.5,0.084
2023.742,987.0,0.084
2024.345,987.5,0.084
2024.947,988.0,0.084
2025.552,988.5,0.084
2026.157,989.0,0.084
2026.759,989.5,0.084
2027.358,990.0,0.084
2027.955,990.5,0.084
2028.562,991.0,0.084
2029.168,991.5,0.084
2029.767,992.0,0.084
2030.371,992.5,0.084
2030.977,993.0,0.084
2031.577,993.5,0.084
2032.176,994.0,0.084
2032.775,994.5,0.084
2033.379,995.0,0.084
2033.985,995.5,0.084
2034.58,996.0,0.084
2035.179,996.5,0.084
2035.787,997.0,0.083
2036.39,997.5,0.083
2036.99,998.0,0.083
2037.588,998.5,0.083
2038.186,999.0,0.083
2038.787,999.5,0.083
2039.391,1000.0,0.083
2039.996,1000.5,0.083
2040.599,1001.0,0.083
2041.2,1001.5,0.083
2041.798,1002.0,0.083
2042.401,1002.5,0.083
2043.006,1003.0,0.083
2043.607,1003.5,0.083
2044.209,1004.0,0.083
2044.814,1004.5,0.083
2045.415,1005.0,0.083
2046.014,1005.5,0.083
2046.612,1006.0,0.083
2047.211,1006.5,0.083
2047.813,1007.0,0.083
2048.412,1007.5,0.083
2049.01,1008.0,0.083
2049.611,1008.5,0.083
2050.215,1009.0,0.083
2050.822,1009.5,0.083
2051.421,1010.0,0.083
2052.017,1010.5,0.083
2052.616,1011.0,0.083
2053.216,1011.5,0.083
2053.819,1012.0,0.083
2054.425,1012.5,0.083
2055.031,1013.0,0.083
2055.625,1013.5,0.083
2056.222,1014.0,0.083
2056.825,1014.5,0.083
2057.423,1015.0,0.083
2058.018,1015.5,0.083
2058.618,1016.0,0.083
2059.221,1016.5,0.083
2059.83,1017.0,0.083
2060.433,1017.5,0.083
2061.032,1018.0,0.083
2061.624,1018.5,0.083
2062.219,1019.0,0.083
2062.822,1019.5,0.083
2063.419,1020.0,0.083
2064.013,1020.5,0.083
2064.622,1021.0,0.083
2065.226,1021.5,0.083
2065.823,1022.0,0.083
2066.423,1022.5,0.083
2067.024,1023.0,0.083
2067.623,1023.5,0.083
2068.222,1024.0,0.083
2068.823,1024.5,0.083
2069.424,1025.0,0.083
2070.024,1025.5,0.083
2070.627,1026.0,0.082
2071.228,1026.5,0.082
2071.826,1027.0,0.082
2072.425,1027.5,0.082
2073.024,1028.0,0.082
2073.624,1028.5,0.082
2074.224,1029.0,0.082
2074.826,1029.5,0.082
2075.419,1030.0,0.082
2076.01,1030.5,0.082
2076.614,1031.0,0.082
2077.216,1031.5,0.082
2077.813,1032.0,0.082
2078.418,1032.5,0.082
2079.026,1033.0,0.082
2079.616,1033.5,0.082
2080.212,1034.0,0.082
2080.818,1034.5,0.082
2081.416,1035.0,0.082
2082.011,1035.5,0.082
2082.616,1036.0,0.082
2083.218,1036.5,0.082
2083.813,1037.0,0.082
2084.411,1037.5,0.082
2085.01,1038.0,0.082
2085.61,1038.5,0.082
2086.21,1039.0,0.082
2086.809,1039.5,0.082
2087.411,1040.0,0.082
2088.014,1040.5,0.082
2088.61,1041.0,0.082
2089.209,1041.5,0.082
2089.813,1042.0,0.082
2090.411,1042.5,0.082
2091.007,1043.0,0.082
2091.61,1043.5,0.082
2092.211,1044.0,0.082
2092.806,1044.5,0.082
2093.408,1045.0,0.082
2094.013,1045.5,0.082
2094.61,1046.0,0.082
2095.207,1046.5,0.082
2095.806,1047.0,0.082
2096.405,1047.5,0.082
2097.004,1048.0,0.082
2097.607,1048.5,0.082
2098.209,1049.0,0.082
2098.806,1049.5,0.082
2099.405,1050.0,0.082
2100.004,1050.5,0.082
2100.603,1051.0,0.082
2101.202,1051.5,0.082
2101.801,1052.0,0.082
2102.401,1052.5,0.082
2103.001,1053.0,0.082
2103.537,1053.5,0.082
2104.148,1054.0,0.082
2105.233,1054.5,0.082
2106.24,1055.0,0.082
2107.112,1055.5,0.082
2107.972,1056.0,0.082
2108.834,1056.5,0.082
2109.72,1057.0,0.082
2110.636,1057.5,0.082
2111.598,1058.0,0.082
2112.607,1058.5,0.082
2113.665,1059.0,0.082
2114.767,1059.5,0.082
2115.91,1060.0,0.081
2117.108,1060.5,0.081
2118.379,1061.0,0.081
2119.721,1061.5,0.081
2121.118,1062.0,0.081
2124.0,1062.938,0.081
2134.0,1065.465,0.081
2144.0,1067.191,0.081
2154.0,1068.394,0.081
2164.0,1069.243,0.081
2174.0,1069.857,0.081
2184.0,1070.312,0.081
2194.0,1070.651,0.081
2204.0,1070.93,0.081
2214.0,1071.135,0.081
2224.0,1071.325,0.081
2234.0,1071.461,0.08
2244.0,1071.586,0.08
2254.0,1071.693,0.08
2264.0,1071.783,0.08
2274.0,1071.855,0.08
2284.0,1071.927,0.08
2294.0,1071.982,0.08
2304.0,1072.033,0.08
2314.0,1072.079,0.08
2324.0,1072.111,0.08
2334.0,1072.151,0.08
2344.0,1072.176,0.08
2354.0,1072.215,0.08
2364.0,1072.227,0.08
2374.0,1072.254,0.08
2384.0,1072.267,0.08
2394.0,1072.283,0.08
2404.0,1072.297,0.08
2414.0,1072.308,0.079
2424.0,1072.327,0.079
