Time (s),Temperature (K),Mass (mg)
0.0,305.014,1.019
4.0,304.976,1.018
8.0,304.977,1.017
19.0,304.912,1.016
25.0,304.904,1.015
31.0,304.88,1.014
43.0,304.837,1.013
51.0,304.822,1.012
61.0,304.812,1.011
74.0,304.784,1.01
83.0,304.753,1.009
94.0,304.731,1.008
108.0,304.726,1.007
119.0,304.694,1.006
153.0,304.636,1.005
167.0,304.616,1.004
199.0,304.606,1.003
211.0,304.579,1.002
212.0,304.571,1.003
213.0,304.566,1.002
267.0,304.536,1.001
322.0,304.513,1.0
343.0,304.501,0.999
350.0,304.509,1.0
363.0,304.497,0.999
372.0,304.49,1.0
385.0,304.48,0.999
498.0,304.461,0.998
637.0,304.452,0.997
649.0,304.432,0.998
666.0,304.459,0.997
695.0,304.439,0.998
706.0,304.432,0.997
914.0,304.473,0.996
925.0,304.463,0.997
960.0,304.469,0.996
979.0,304.439,0.997
1016.0,304.441,0.996
1045.0,304.47,0.997
1056.0,304.466,0.996
1064.0,304.44,0.997
1085.0,304.456,0.996
1116.0,304.459,0.997
1130.0,304.453,0.996
1203.962,305.0,0.995
1205.142,305.5,0.994
1206.107,306.0,0.994
1206.914,306.5,0.994
1207.712,307.0,0.993
1208.579,307.5,0.993
1209.491,308.0,0.993
1210.349,308.5,0.994
1211.127,309.0,0.994
1211.866,309.5,0.995
1212.579,310.0,0.995
1213.265,310.5,0.995
1213.921,311.0,0.996
1214.58,311.5,0.997
1215.233,312.0,0.997
1215.875,312.5,0.997
1216.507,313.0,0.998
1217.138,313.5,0.998
1217.775,314.0,0.998
1218.391,314.5,0.998
1218.995,315.0,0.999
1219.619,315.5,0.999
1220.235,316.0,0.999
1220.837,316.5,0.999
1221.448,317.0,0.999
1222.06,317.5,0.999
1222.662,318.0,0.999
1223.262,318.5,0.999
1223.861,319.0,0.999
1224.472,319.5,0.999
1225.085,320.0,0.999
1225.687,320.5,0.999
1226.285,321.0,0.999
1226.88,321.5,0.999
1227.489,322.0,0.999
1228.1,322.5,0.998
1228.703,323.0,0.998
1229.301,323.5,0.998
1229.894,324.0,0.998
1230.493,324.5,0.998
1231.093,325.0,0.998
1231.696,325.5,0.997
1232.296,326.0,0.997
1232.894,326.5,0.997
1233.498,327.0,0.997
1234.103,327.5,0.997
1234.702,328.0,0.997
1235.298,328.5,0.997
1235.892,329.0,0.997
1236.49,329.5,0.997
1237.09,330.0,0.996
1237.692,330.5,0.996
1238.294,331.0,0.996
1238.896,331.5,0.996
1239.505,332.0,0.996
1240.112,332.5,0.996
1240.708,333.0,0.996
1241.304,333.5,0.996
1241.9,334.0,0.995
1242.502,334.5,0.995
1243.107,335.0,0.995
1243.714,335.5,0.995
1244.318,336.0,0.995
1244.917,336.5,0.995
1245.525,337.0,0.995
1246.131,337.5,0.995
1246.725,338.0,0.994
1247.324,338.5,0.994
1247.927,339.0,0.994
1248.536,339.5,0.994
1249.145,340.0,0.994
1249.749,340.5,0.994
1250.355,341.0,0.994
1250.962,341.5,0.994
1251.562,342.0,0.994
1252.16,342.5,0.994
1252.755,343.0,0.993
1253.356,343.5,0.993
1253.961,344.0,0.993
1254.557,344.5,0.993
1255.153,345.0,0.993
1255.749,345.5,0.993
1256.352,346.0,0.993
1256.959,346.5,0.993
1257.561,347.0,0.992
1258.166,347.5,0.992
1258.777,348.0,0.992
1259.381,348.5,0.992
1259.981,349.0,0.992
1260.582,349.5,0.992
1261.186,350.0,0.992
1261.797,350.5,0.992
1262.398,351.0,0.992
1262.994,351.5,0.991
1263.61,352.0,0.991
1264.214,352.5,0.991
1264.799,353.0,0.991
1265.401,353.5,0.991
1266.012,354.0,0.991
1266.61,354.5,0.99
1267.211,355.0,0.99
1267.819,355.5,0.99
1268.422,356.0,0.99
1269.024,356.5,0.99
1269.628,357.0,0.99
1270.228,357.5,0.99
1270.823,358.0,0.989
1271.428,358.5,0.989
1272.036,359.0,0.989
1272.641,359.5,0.989
1273.245,360.0,0.989
1273.847,360.5,0.989
1274.447,361.0,0.989
1275.045,361.5,0.989
1275.642,362.0,0.989
1276.244,362.5,0.989
1276.854,363.0,0.989
1277.463,363.5,0.989
1278.072,364.0,0.989
1278.67,364.5,0.988
1279.27,365.0,0.988
1279.871,365.5,0.988
1280.471,366.0,0.988
1281.071,366.5,0.988
1281.681,367.0,0.988
1282.285,367.5,0.988
1282.881,368.0,0.988
1283.484,368.5,0.988
1284.09,369.0,0.988
1284.698,369.5,0.988
1285.3,370.0,0.988
1285.895,370.5,0.987
1286.495,371.0,0.987
1287.095,371.5,0.987
1287.693,372.0,0.987
1288.296,372.5,0.987
1288.904,373.0,0.987
1289.515,373.5,0.987
1290.122,374.0,0.987
1290.717,374.5,0.987
1291.315,375.0,0.987
1291.916,375.5,0.987
1292.515,376.0,0.987
1293.116,376.5,0.987
1293.724,377.0,0.987
1294.33,377.5,0.987
1294.934,378.0,0.987
1295.529,378.5,0.987
1296.125,379.0,0.987
1296.734,379.5,0.986
1297.339,380.0,0.986
1297.942,380.5,0.986
1298.536,381.0,0.986
1299.133,381.5,0.986
1299.743,382.0,0.986
1300.344,382.5,0.986
1300.94,383.0,0.986
1301.543,383.5,0.986
1302.146,384.0,0.986
1302.745,384.5,0.986
1303.349,385.0,0.986
1303.956,385.5,0.986
1304.549,386.0,0.986
1305.142,386.5,0.986
1305.738,387.0,0.986
1306.338,387.5,0.986
1306.942,388.0,0.986
1307.545,388.5,0.986
1308.148,389.0,0.986
1308.752,389.5,0.986
1309.354,390.0,0.986
1309.955,390.5,0.986
1310.549,391.0,0.985
1311.145,391.5,0.985
1311.749,392.0,0.985
1312.351,392.5,0.985
1312.953,393.0,0.985
1313.554,393.5,0.985
1314.153,394.0,0.985
1314.747,394.5,0.985
1315.347,395.0,0.985
1315.95,395.5,0.985
1316.547,396.0,0.985
1317.144,396.5,0.985
1317.744,397.0,0.985
1318.346,397.5,0.985
1318.948,398.0,0.985
1319.548,398.5,0.985
1320.146,399.0,0.985
1320.737,399.5,0.985
1321.339,400.0,0.985
1321.948,400.5,0.985
1322.541,401.0,0.985
1323.135,401.5,0.985
1323.733,402.0,0.985
1324.331,402.5,0.985
1324.928,403.0,0.985
1325.529,403.5,0.985
1326.129,404.0,0.985
1326.726,404.5,0.985
1327.322,405.0,0.985
1327.916,405.5,0.985
1328.521,406.0,0.985
1329.125,406.5,0.985
1329.717,407.0,0.985
1330.307,407.5,0.985
1330.895,408.0,0.985
1331.495,408.5,0.985
1332.095,409.0,0.985
1332.686,409.5,0.985
1333.285,410.0,0.985
1333.892,410.5,0.985
1334.491,411.0,0.985
1335.087,411.5,0.985
1335.672,412.0,0.985
1336.263,412.5,0.985
1336.862,413.0,0.985
1337.46,413.5,0.985
1338.057,414.0,0.985
1338.656,414.5,0.985
1339.256,415.0,0.985
1339.857,415.5,0.985
1340.45,416.0,0.985
1341.041,416.5,0.985
1341.631,417.0,0.985
1342.226,417.5,0.985
1342.829,418.0,0.985
1343.425,418.5,0.985
1344.018,419.0,0.985
1344.612,419.5,0.985
1345.206,420.0,0.985
1345.797,420.5,0.985
1346.389,421.0,0.985
1346.981,421.5,0.985
1347.58,422.0,0.985
1348.179,422.5,0.985
1348.78,423.0,0.985
1349.376,423.5,0.985
1349.968,424.0,0.985
1350.559,424.5,0.985
1351.149,425.0,0.985
1351.733,425.5,0.985
1352.329,426.0,0.985
1352.932,426.5,0.985
1353.531,427.0,0.985
1354.126,427.5,0.985
1354.708,428.0,0.985
1355.295,428.5,0.985
1355.888,429.0,0.985
1356.482,429.5,0.985
1357.076,430.0,0.985
1357.67,430.5,0.985
1358.264,431.0,0.985
1358.857,431.5,0.985
1359.448,432.0,0.985
1360.037,432.5,0.985
1360.631,433.0,0.985
1361.224,433.5,0.985
1361.816,434.0,0.985
1362.409,434.5,0.985
1363.002,435.0,0.985
1363.593,435.5,0.985
1364.186,436.0,0.985
1364.784,436.5,0.985
1365.378,437.0,0.985
1365.968,437.5,0.985
1366.556,438.0,0.985
1367.145,438.5,0.985
1367.736,439.0,0.985
1368.325,439.5,0.985
1368.913,440.0,0.985
1369.506,440.5,0.985
1370.099,441.0,0.985
1370.685,441.5,0.984
1371.278,442.0,0.984
1371.877,442.5,0.984
1372.467,443.0,0.984
1373.054,443.5,0.984
1373.642,444.0,0.984
1374.231,444.5,0.984
1374.823,445.0,0.984
1375.409,445.5,0.984
1375.992,446.0,0.984
1376.583,446.5,0.984
1377.172,447.0,0.984
1377.758,447.5,0.984
1378.351,448.0,0.984
1378.95,448.5,0.984
1379.535,449.0,0.984
1380.12,449.5,0.984
1380.71,450.0,0.984
1381.301,450.5,0.984
1381.894,451.0,0.984
1382.482,451.5,0.984
1383.07,452.0,0.984
1383.66,452.5,0.984
1384.25,453.0,0.984
1384.839,453.5,0.984
1385.426,454.0,0.984
1386.013,454.5,0.984
1386.599,455.0,0.984
1387.189,455.5,0.984
1387.788,456.0,0.983
1388.376,456.5,0.983
1388.958,457.0,0.983
1389.541,457.5,0.983
1390.124,458.0,0.983
1390.707,458.5,0.983
1391.295,459.0,0.983
1391.887,459.5,0.983
1392.476,460.0,0.983
1393.063,460.5,0.983
1393.643,461.0,0.982
1394.227,461.5,0.982
1394.813,462.0,0.982
1395.408,462.5,0.982
1396.007,463.0,0.982
1396.59,463.5,0.982
1397.174,464.0,0.982
1397.757,464.5,0.982
1398.342,465.0,0.982
1398.928,465.5,0.982
1399.514,466.0,0.982
1400.1,466.5,0.982
1400.689,467.0,0.981
1401.274,467.5,0.981
1401.856,468.0,0.981
1402.446,468.5,0.981
1403.039,469.0,0.981
1403.63,469.5,0.981
1404.219,470.0,0.981
1404.804,470.5,0.981
1405.386,471.0,0.981
1405.965,471.5,0.981
1406.547,472.0,0.981
1407.131,472.5,0.981
1407.72,473.0,0.98
1408.308,473.5,0.98
1408.895,474.0,0.98
1409.478,474.5,0.98
1410.06,475.0,0.98
1410.642,475.5,0.98
1411.225,476.0,0.98
1411.812,476.5,0.979
1412.397,477.0,0.979
1412.98,477.5,0.979
1413.566,478.0,0.979
1414.151,478.5,0.979
1414.734,479.0,0.979
1415.318,479.5,0.979
1415.902,480.0,0.978
1416.488,480.5,0.978
1417.073,481.0,0.978
1417.652,481.5,0.978
1418.236,482.0,0.978
1418.826,482.5,0.977
1419.414,483.0,0.977
1420.001,483.5,0.977
1420.583,484.0,0.977
1421.165,484.5,0.977
1421.747,485.0,0.976
1422.329,485.5,0.976
1422.912,486.0,0.976
1423.507,486.5,0.976
1424.101,487.0,0.976
1424.68,487.5,0.976
1425.26,488.0,0.976
1425.84,488.5,0.975
1426.423,489.0,0.975
1427.007,489.5,0.975
1427.584,490.0,0.975
1428.165,490.5,0.975
1428.755,491.0,0.974
1429.343,491.5,0.974
1429.93,492.0,0.974
1430.519,492.5,0.974
1431.106,493.0,0.974
1431.682,493.5,0.974
1432.261,494.0,0.974
1432.844,494.5,0.973
1433.426,495.0,0.973
1434.007,495.5,0.973
1434.587,496.0,0.973
1435.168,496.5,0.973
1435.753,497.0,0.973
1436.34,497.5,0.973
1436.928,498.0,0.972
1437.515,498.5,0.972
1438.101,499.0,0.972
1438.683,499.5,0.972
1439.263,500.0,0.972
1439.843,500.5,0.972
1440.425,501.0,0.972
1441.008,501.5,0.971
1441.594,502.0,0.971
1442.178,502.5,0.971
1442.754,503.0,0.971
1443.34,503.5,0.971
1443.934,504.0,0.97
1444.509,504.5,0.97
1445.086,505.0,0.97
1445.687,505.5,0.97
1446.273,506.0,0.97
1446.843,506.5,0.969
1447.423,507.0,0.969
1448.007,507.5,0.969
1448.586,508.0,0.969
1449.167,508.5,0.969
1449.753,509.0,0.968
1450.34,509.5,0.968
1450.928,510.0,0.968
1451.503,510.5,0.968
1452.079,511.0,0.968
1452.669,511.5,0.967
1453.254,512.0,0.967
1453.835,512.5,0.967
1454.417,513.0,0.967
1455.0,513.5,0.966
1455.589,514.0,0.966
1456.176,514.5,0.966
1456.757,515.0,0.966
1457.335,515.5,0.966
1457.91,516.0,0.965
1458.499,516.5,0.965
1459.09,517.0,0.965
1459.673,517.5,0.964
1460.256,518.0,0.964
1460.836,518.5,0.964
1461.415,519.0,0.964
1461.993,519.5,0.964
1462.587,520.0,0.963
1463.178,520.5,0.963
1463.758,521.0,0.963
1464.338,521.5,0.963
1464.918,522.0,0.962
1465.499,522.5,0.962
1466.08,523.0,0.962
1466.663,523.5,0.961
1467.249,524.0,0.961
1467.838,524.5,0.961
1468.419,525.0,0.961
1468.995,525.5,0.961
1469.58,526.0,0.96
1470.164,526.5,0.96
1470.746,527.0,0.96
1471.33,527.5,0.96
1471.916,528.0,0.959
1472.495,528.5,0.959
1473.075,529.0,0.959
1473.66,529.5,0.958
1474.248,530.0,0.958
1474.839,530.5,0.958
1475.423,531.0,0.958
1476.005,531.5,0.957
1476.583,532.0,0.957
1477.165,532.5,0.957
1477.754,533.0,0.956
1478.342,533.5,0.956
1478.928,534.0,0.955
1479.513,534.5,0.955
1480.097,535.0,0.955
1480.681,535.5,0.954
1481.265,536.0,0.954
1481.849,536.5,0.953
1482.436,537.0,0.953
1483.023,537.5,0.953
1483.606,538.0,0.952
1484.188,538.5,0.952
1484.769,539.0,0.951
1485.352,539.5,0.951
1485.936,540.0,0.95
1486.524,540.5,0.95
1487.111,541.0,0.95
1487.695,541.5,0.949
1488.278,542.0,0.949
1488.858,542.5,0.948
1489.442,543.0,0.948
1490.027,543.5,0.947
1490.615,544.0,0.946
1491.199,544.5,0.946
1491.776,545.0,0.946
1492.362,545.5,0.946
1492.953,546.0,0.945
1493.528,546.5,0.944
1494.104,547.0,0.944
1494.698,547.5,0.943
1495.286,548.0,0.943
1495.87,548.5,0.942
1496.459,549.0,0.942
1497.049,549.5,0.941
1497.629,550.0,0.94
1498.211,550.5,0.94
1498.796,551.0,0.939
1499.38,551.5,0.939
1499.963,552.0,0.938
1500.545,552.5,0.937
1501.13,553.0,0.937
1501.72,553.5,0.936
1502.307,554.0,0.936
1502.89,554.5,0.935
1503.478,555.0,0.935
1504.065,555.5,0.934
1504.641,556.0,0.933
1505.221,556.5,0.933
1505.81,557.0,0.932
1506.397,557.5,0.931
1506.982,558.0,0.93
1507.568,558.5,0.929
1508.154,559.0,0.929
1508.741,559.5,0.928
1509.326,560.0,0.928
1509.908,560.5,0.927
1510.499,561.0,0.927
1511.091,561.5,0.926
1511.674,562.0,0.925
1512.257,562.5,0.924
1512.84,563.0,0.923
1513.426,563.5,0.923
1514.013,564.0,0.922
1514.597,564.5,0.921
1515.181,565.0,0.921
1515.765,565.5,0.919
1516.351,566.0,0.919
1516.937,566.5,0.918
1517.518,567.0,0.917
1518.1,567.5,0.917
1518.687,568.0,0.916
1519.277,568.5,0.915
1519.872,569.0,0.914
1520.454,569.5,0.914
1521.034,570.0,0.913
1521.622,570.5,0.912
1522.209,571.0,0.911
1522.797,571.5,0.91
1523.385,572.0,0.909
1523.973,572.5,0.908
1524.564,573.0,0.907
1525.152,573.5,0.907
1525.732,574.0,0.906
1526.315,574.5,0.905
1526.9,575.0,0.904
1527.495,575.5,0.904
1528.09,576.0,0.903
1528.674,576.5,0.902
1529.261,577.0,0.9
1529.85,577.5,0.899
1530.437,578.0,0.899
1531.023,578.5,0.898
1531.622,579.0,0.897
1532.215,579.5,0.896
1532.8,580.0,0.895
1533.384,580.5,0.894
1533.968,581.0,0.893
1534.558,581.5,0.892
1535.146,582.0,0.891
1535.729,582.5,0.89
1536.316,583.0,0.889
1536.906,583.5,0.888
1537.502,584.0,0.887
1538.096,584.5,0.886
1538.677,585.0,0.885
1539.261,585.5,0.883
1539.847,586.0,0.882
1540.439,586.5,0.881
1541.033,587.0,0.88
1541.626,587.5,0.879
1542.216,588.0,0.878
1542.804,588.5,0.877
1543.39,589.0,0.876
1543.977,589.5,0.874
1544.563,590.0,0.873
1545.15,590.5,0.872
1545.736,591.0,0.871
1546.324,591.5,0.869
1546.914,592.0,0.868
1547.507,592.5,0.867
1548.098,593.0,0.866
1548.681,593.5,0.865
1549.267,594.0,0.863
1549.856,594.5,0.862
1550.45,595.0,0.861
1551.045,595.5,0.86
1551.634,596.0,0.858
1552.223,596.5,0.857
1552.813,597.0,0.855
1553.403,597.5,0.854
1553.992,598.0,0.853
1554.583,598.5,0.851
1555.175,599.0,0.85
1555.765,599.5,0.848
1556.356,600.0,0.847
1556.948,600.5,0.845
1557.538,601.0,0.844
1558.127,601.5,0.843
1558.712,602.0,0.841
1559.297,602.5,0.839
1559.883,603.0,0.837
1560.48,603.5,0.836
1561.077,604.0,0.835
1561.66,604.5,0.833
1562.247,605.0,0.831
1562.841,605.5,0.829
1563.435,606.0,0.828
1564.028,606.5,0.826
1564.616,607.0,0.825
1565.204,607.5,0.823
1565.795,608.0,0.822
1566.388,608.5,0.82
1566.983,609.0,0.818
1567.58,609.5,0.816
1568.175,610.0,0.814
1568.767,610.5,0.812
1569.358,611.0,0.81
1569.948,611.5,0.808
1570.54,612.0,0.806
1571.131,612.5,0.805
1571.723,613.0,0.803
1572.316,613.5,0.801
1572.911,614.0,0.798
1573.501,614.5,0.796
1574.092,615.0,0.795
1574.689,615.5,0.793
1575.284,616.0,0.791
1575.875,616.5,0.789
1576.465,617.0,0.787
1577.056,617.5,0.785
1577.654,618.0,0.782
1578.249,618.5,0.78
1578.84,619.0,0.778
1579.435,619.5,0.776
1580.031,620.0,0.774
1580.617,620.5,0.772
1581.205,621.0,0.769
1581.796,621.5,0.767
1582.393,622.0,0.764
1582.993,622.5,0.762
1583.596,623.0,0.76
1584.194,623.5,0.757
1584.782,624.0,0.755
1585.376,624.5,0.752
1585.974,625.0,0.75
1586.563,625.5,0.748
1587.153,626.0,0.745
1587.745,626.5,0.743
1588.341,627.0,0.741
1588.939,627.5,0.738
1589.531,628.0,0.736
1590.124,628.5,0.733
1590.727,629.0,0.73
1591.325,629.5,0.728
1591.919,630.0,0.725
1592.521,630.5,0.722
1593.122,631.0,0.72
1593.715,631.5,0.717
1594.308,632.0,0.715
1594.899,632.5,0.712
1595.49,633.0,0.71
1596.082,633.5,0.707
1596.682,634.0,0.704
1597.28,634.5,0.701
1597.877,635.0,0.698
1598.47,635.5,0.696
1599.064,636.0,0.693
1599.663,636.5,0.69
1600.258,637.0,0.688
1600.847,637.5,0.685
1601.445,638.0,0.682
1602.045,638.5,0.679
1602.637,639.0,0.676
1603.233,639.5,0.674
1603.834,640.0,0.671
1604.434,640.5,0.668
1605.032,641.0,0.665
1605.634,641.5,0.662
1606.233,642.0,0.659
1606.829,642.5,0.656
1607.427,643.0,0.653
1608.027,643.5,0.65
1608.62,644.0,0.647
1609.217,644.5,0.644
1609.819,645.0,0.641
1610.422,645.5,0.638
1611.024,646.0,0.635
1611.618,646.5,0.632
1612.213,647.0,0.629
1612.807,647.5,0.626
1613.411,648.0,0.623
1614.018,648.5,0.62
1614.611,649.0,0.617
1615.205,649.5,0.614
1615.803,650.0,0.611
1616.401,650.5,0.608
1616.999,651.0,0.605
1617.595,651.5,0.601
1618.194,652.0,0.598
1618.8,652.5,0.595
1619.403,653.0,0.592
1620.004,653.5,0.588
1620.6,654.0,0.585
1621.201,654.5,0.582
1621.809,655.0,0.578
1622.408,655.5,0.575
1623.004,656.0,0.572
1623.606,656.5,0.568
1624.209,657.0,0.565
1624.812,657.5,0.561
1625.409,658.0,0.558
1626.002,658.5,0.555
1626.609,659.0,0.551
1627.213,659.5,0.548
1627.812,660.0,0.544
1628.411,660.5,0.541
1629.01,661.0,0.537
1629.621,661.5,0.533
1630.227,662.0,0.53
1630.823,662.5,0.526
1631.423,663.0,0.522
1632.024,663.5,0.518
1632.63,664.0,0.514
1633.233,664.5,0.511
1633.832,665.0,0.507
1634.436,665.5,0.503
1635.041,666.0,0.499
1635.64,666.5,0.495
1636.242,667.0,0.491
1636.845,667.5,0.487
1637.448,668.0,0.483
1638.05,668.5,0.48
1638.655,669.0,0.475
1639.26,669.5,0.471
1639.865,670.0,0.467
1640.466,670.5,0.463
1641.068,671.0,0.459
1641.679,671.5,0.454
1642.288,672.0,0.45
1642.896,672.5,0.446
1643.493,673.0,0.442
1644.091,673.5,0.437
1644.7,674.0,0.432
1645.304,674.5,0.428
1645.905,675.0,0.424
1646.513,675.5,0.419
1647.122,676.0,0.415
1647.724,676.5,0.41
1648.331,677.0,0.406
1648.941,677.5,0.401
1649.539,678.0,0.397
1650.138,678.5,0.393
1650.741,679.0,0.388
1651.345,679.5,0.384
1651.952,680.0,0.379
1652.553,680.5,0.375
1653.154,681.0,0.37
1653.756,681.5,0.366
1654.357,682.0,0.361
1654.959,682.5,0.357
1655.568,683.0,0.353
1656.177,683.5,0.349
1656.784,684.0,0.345
1657.387,684.5,0.34
1657.988,685.0,0.336
1658.586,685.5,0.332
1659.188,686.0,0.328
1659.798,686.5,0.324
1660.401,687.0,0.32
1661.002,687.5,0.316
1661.606,688.0,0.312
1662.208,688.5,0.309
1662.81,689.0,0.305
1663.414,689.5,0.302
1664.018,690.0,0.299
1664.623,690.5,0.296
1665.226,691.0,0.293
1665.822,691.5,0.29
1666.428,692.0,0.287
1667.037,692.5,0.284
1667.629,693.0,0.281
1668.228,693.5,0.279
1668.839,694.0,0.277
1669.444,694.5,0.274
1670.048,695.0,0.272
1670.651,695.5,0.269
1671.251,696.0,0.267
1671.849,696.5,0.265
1672.459,697.0,0.264
1673.073,697.5,0.263
1673.679,698.0,0.261
1674.28,698.5,0.259
1674.875,699.0,0.257
1675.477,699.5,0.257
1676.081,700.0,0.256
1676.686,700.5,0.255
1677.292,701.0,0.253
1677.898,701.5,0.252
1678.502,702.0,0.251
1679.106,702.5,0.25
1679.708,703.0,0.249
1680.31,703.5,0.249
1680.914,704.0,0.248
1681.517,704.5,0.247
1682.12,705.0,0.247
1682.723,705.5,0.246
1683.33,706.0,0.246
1683.94,706.5,0.245
1684.543,707.0,0.244
1685.146,707.5,0.244
1685.754,708.0,0.244
1686.36,708.5,0.244
1686.964,709.0,0.243
1687.568,709.5,0.242
1688.173,710.0,0.242
1688.784,710.5,0.242
1689.388,711.0,0.242
1689.988,711.5,0.241
1690.592,712.0,0.241
1691.197,712.5,0.241
1691.805,713.0,0.24
1692.411,713.5,0.24
1693.016,714.0,0.239
1693.628,714.5,0.239
1694.234,715.0,0.239
1694.831,715.5,0.238
1695.434,716.0,0.238
1696.04,716.5,0.238
1696.641,717.0,0.237
1697.244,717.5,0.237
1697.851,718.0,0.237
1698.461,718.5,0.237
1699.072,719.0,0.236
1699.676,719.5,0.236
1700.281,720.0,0.236
1700.889,720.5,0.235
1701.493,721.0,0.235
1702.097,721.5,0.235
1702.7,722.0,0.234
1703.307,722.5,0.234
1703.917,723.0,0.234
1704.519,723.5,0.233
1705.123,724.0,0.233
1705.737,724.5,0.233
1706.348,725.0,0.233
1706.957,725.5,0.232
1707.558,726.0,0.232
1708.16,726.5,0.232
1708.768,727.0,0.231
1709.371,727.5,0.231
1709.97,728.0,0.231
1710.581,728.5,0.23
1711.193,729.0,0.23
1711.806,729.5,0.23
1712.412,730.0,0.23
1713.013,730.5,0.23
1713.617,731.0,0.229
1714.22,731.5,0.229
1714.823,732.0,0.229
1715.434,732.5,0.229
1716.047,733.0,0.228
1716.649,733.5,0.228
1717.254,734.0,0.228
1717.86,734.5,0.227
1718.466,735.0,0.227
1719.072,735.5,0.227
1719.682,736.0,0.227
1720.288,736.5,0.227
1720.89,737.0,0.226
1721.499,737.5,0.226
1722.109,738.0,0.226
1722.713,738.5,0.225
1723.321,739.0,0.225
1723.932,739.5,0.225
1724.536,740.0,0.224
1725.138,740.5,0.224
1725.735,741.0,0.224
1726.338,741.5,0.224
1726.946,742.0,0.224
1727.555,742.5,0.223
1728.164,743.0,0.223
1728.774,743.5,0.223
1729.384,744.0,0.223
1729.994,744.5,0.222
1730.598,745.0,0.222
1731.203,745.5,0.222
1731.811,746.0,0.222
1732.416,746.5,0.222
1733.02,747.0,0.221
1733.629,747.5,0.221
1734.238,748.0,0.221
1734.846,748.5,0.22
1735.45,749.0,0.22
1736.055,749.5,0.22
1736.663,750.0,0.22
1737.273,750.5,0.22
1737.885,751.0,0.219
1738.49,751.5,0.219
1739.094,752.0,0.219
1739.698,752.5,0.219
1740.303,753.0,0.219
1740.909,753.5,0.218
1741.522,754.0,0.218
1742.135,754.5,0.218
1742.742,755.0,0.218
1743.349,755.5,0.218
1743.957,756.0,0.217
1744.56,756.5,0.217
1745.164,757.0,0.217
1745.771,757.5,0.217
1746.376,758.0,0.217
1746.981,758.5,0.216
1747.592,759.0,0.216
1748.2,759.5,0.216
1748.804,760.0,0.216
1749.411,760.5,0.216
1750.019,761.0,0.216
1750.627,761.5,0.215
1751.232,762.0,0.215
1751.834,762.5,0.215
1752.443,763.0,0.215
1753.054,763.5,0.215
1753.65,764.0,0.214
1754.255,764.5,0.214
1754.87,765.0,0.214
1755.477,765.5,0.214
1756.083,766.0,0.214
1756.692,766.5,0.213
1757.3,767.0,0.213
1757.909,767.5,0.213
1758.514,768.0,0.213
1759.119,768.5,0.213
1759.726,769.0,0.212
1760.334,769.5,0.212
1760.944,770.0,0.212
1761.552,770.5,0.212
1762.157,771.0,0.212
1762.758,771.5,0.212
1763.368,772.0,0.212
1763.984,772.5,0.211
1764.581,773.0,0.211
1765.181,773.5,0.211
1765.787,774.0,0.211
1766.399,774.5,0.211
1767.013,775.0,0.211
1767.616,775.5,0.21
1768.221,776.0,0.21
1768.829,776.5,0.21
1769.434,777.0,0.21
1770.038,777.5,0.21
1770.652,778.0,0.21
1771.262,778.5,0.21
1771.866,779.0,0.209
1772.476,779.5,0.209
1773.087,780.0,0.209
1773.688,780.5,0.209
1774.294,781.0,0.209
1774.907,781.5,0.209
1775.507,782.0,0.208
1776.107,782.5,0.208
1776.72,783.0,0.208
1777.327,783.5,0.208
1777.929,784.0,0.208
1778.537,784.5,0.208
1779.145,785.0,0.208
1779.749,785.5,0.207
1780.357,786.0,0.207
1780.969,786.5,0.207
1781.576,787.0,0.207
1782.182,787.5,0.207
1782.788,788.0,0.207
1783.394,788.5,0.207
1784.001,789.0,0.207
1784.612,789.5,0.206
1785.22,790.0,0.206
1785.821,790.5,0.206
1786.425,791.0,0.206
1787.032,791.5,0.206
1787.639,792.0,0.206
1788.243,792.5,0.206
1788.842,793.0,0.205
1789.454,793.5,0.205
1790.07,794.0,0.205
1790.679,794.5,0.205
1791.287,795.0,0.205
1791.893,795.5,0.205
1792.497,796.0,0.205
1793.1,796.5,0.205
1793.705,797.0,0.204
1794.314,797.5,0.204
1794.926,798.0,0.204
1795.533,798.5,0.204
1796.139,799.0,0.204
1796.747,799.5,0.204
1797.352,800.0,0.204
1797.955,800.5,0.204
1798.565,801.0,0.204
1799.175,801.5,0.204
1799.785,802.0,0.204
1800.389,802.5,0.204
1800.99,803.0,0.203
1801.597,803.5,0.203
1802.205,804.0,0.203
1802.815,804.5,0.203
1803.421,805.0,0.203
1804.026,805.5,0.203
1804.633,806.0,0.203
1805.241,806.5,0.203
1805.849,807.0,0.202
1806.454,807.5,0.202
1807.058,808.0,0.202
1807.67,808.5,0.202
1808.279,809.0,0.202
1808.886,809.5,0.202
1809.495,810.0,0.202
1810.103,810.5,0.202
1810.709,811.0,0.202
1811.315,811.5,0.202
1811.92,812.0,0.201
1812.525,812.5,0.201
1813.132,813.0,0.201
1813.741,813.5,0.201
1814.345,814.0,0.201
1814.945,814.5,0.201
1815.56,815.0,0.201
1816.171,815.5,0.201
1816.767,816.0,0.2
1817.372,816.5,0.2
1817.982,817.0,0.2
1818.594,817.5,0.2
1819.204,818.0,0.2
1819.813,818.5,0.2
1820.421,819.0,0.2
1821.029,819.5,0.2
1821.627,820.0,0.2
1822.232,820.5,0.2
1822.849,821.0,0.2
1823.459,821.5,0.2
1824.065,822.0,0.199
1824.672,822.5,0.199
1825.277,823.0,0.199
1825.881,823.5,0.199
1826.49,824.0,0.199
1827.098,824.5,0.199
1827.701,825.0,0.199
1828.307,825.5,0.199
1828.916,826.0,0.198
1829.533,826.5,0.198
1830.146,827.0,0.198
1830.746,827.5,0.198
1831.346,828.0,0.198
1831.946,828.5,0.198
1832.557,829.0,0.198
1833.168,829.5,0.198
1833.778,830.0,0.198
1834.383,830.5,0.198
1834.984,831.0,0.197
1835.595,831.5,0.197
1836.203,832.0,0.197
1836.807,832.5,0.197
1837.415,833.0,0.197
1838.024,833.5,0.197
1838.627,834.0,0.197
1839.232,834.5,0.197
1839.838,835.0,0.197
1840.447,835.5,0.197
1841.058,836.0,0.197
1841.666,836.5,0.196
1842.271,837.0,0.196
1842.875,837.5,0.196
1843.484,838.0,0.196
1844.094,838.5,0.196
1844.705,839.0,0.196
1845.313,839.5,0.196
1845.917,840.0,0.196
1846.526,840.5,0.196
1847.135,841.0,0.196
1847.738,841.5,0.196
1848.346,842.0,0.196
1848.958,842.5,0.196
1849.559,843.0,0.195
1850.163,843.5,0.195
1850.778,844.0,0.195
1851.383,844.5,0.195
1851.981,845.0,0.195
1852.588,845.5,0.195
1853.195,846.0,0.195
1853.799,846.5,0.195
1854.408,847.0,0.195
1855.018,847.5,0.195
1855.627,848.0,0.195
1856.233,848.5,0.195
1856.836,849.0,0.195
1857.441,849.5,0.195
1858.046,850.0,0.194
1858.646,850.5,0.194
1859.252,851.0,0.194
1859.865,851.5,0.194
1860.468,852.0,0.194
1861.068,852.5,0.194
1861.676,853.0,0.194
1862.284,853.5,0.194
1862.895,854.0,0.194
1863.5,854.5,0.194
1864.104,855.0,0.194
1864.711,855.5,0.193
1865.315,856.0,0.193
1865.915,856.5,0.193
1866.524,857.0,0.193
1867.133,857.5,0.193
1867.738,858.0,0.193
1868.346,858.5,0.193
1868.956,859.0,0.193
1869.569,859.5,0.193
1870.178,860.0,0.193
1870.774,860.5,0.193
1871.378,861.0,0.193
1871.988,861.5,0.193
1872.596,862.0,0.192
1873.202,862.5,0.192
1873.802,863.0,0.192
1874.41,863.5,0.192
1875.02,864.0,0.192
1875.618,864.5,0.192
1876.22,865.0,0.192
1876.83,865.5,0.192
1877.44,866.0,0.192
1878.049,866.5,0.192
1878.65,867.0,0.192
1879.252,867.5,0.192
1879.853,868.0,0.192
1880.462,868.5,0.192
1881.072,869.0,0.191
1881.678,869.5,0.191
1882.282,870.0,0.191
1882.885,870.5,0.191
1883.492,871.0,0.191
1884.099,871.5,0.191
1884.705,872.0,0.191
1885.313,872.5,0.191
1885.922,873.0,0.191
1886.525,873.5,0.191
1887.128,874.0,0.191
1887.736,874.5,0.191
1888.344,875.0,0.191
1888.951,875.5,0.19
1889.555,876.0,0.19
1890.159,876.5,0.19
1890.766,877.0,0.19
1891.374,877.5,0.19
1891.984,878.0,0.19
1892.591,878.5,0.19
1893.196,879.0,0.19
1893.797,879.5,0.19
1894.399,880.0,0.19
1895.001,880.5,0.19
1895.613,881.0,0.189
1896.222,881.5,0.189
1896.825,882.0,0.189
1897.429,882.5,0.189
1898.034,883.0,0.189
1898.637,883.5,0.189
1899.242,884.0,0.189
1899.849,884.5,0.189
1900.457,885.0,0.189
1901.065,885.5,0.189
1901.664,886.0,0.189
1902.27,886.5,0.189
1902.882,887.0,0.189
1903.486,887.5,0.189
1904.087,888.0,0.189
1904.688,888.5,0.189
1905.292,889.0,0.189
1905.899,889.5,0.188
1906.501,890.0,0.188
1907.101,890.5,0.188
1907.704,891.0,0.188
1908.31,891.5,0.188
1908.921,892.0,0.188
1909.524,892.5,0.188
1910.127,893.0,0.188
1910.733,893.5,0.188
1911.339,894.0,0.188
1911.943,894.5,0.188
1912.548,895.0,0.188
1913.152,895.5,0.188
1913.755,896.0,0.188
1914.358,896.5,0.188
1914.96,897.0,0.187
1915.566,897.5,0.187
1916.171,898.0,0.187
1916.774,898.5,0.187
1917.382,899.0,0.187
1917.993,899.5,0.187
1918.595,900.0,0.187
1919.196,900.5,0.187
1919.794,901.0,0.187
1920.395,901.5,0.187
1920.996,902.0,0.187
1921.601,902.5,0.187
1922.206,903.0,0.187
1922.812,903.5,0.186
1923.42,904.0,0.186
1924.029,904.5,0.186
1924.629,905.0,0.186
1925.23,905.5,0.186
1925.833,906.0,0.186
1926.43,906.5,0.186
1927.027,907.0,0.186
1927.633,907.5,0.186
1928.243,908.0,0.186
1928.855,908.5,0.186
1929.456,909.0,0.186
1930.054,909.5,0.186
1930.657,910.0,0.186
1931.261,910.5,0.186
1931.866,911.0,0.186
1932.468,911.5,0.186
1933.07,912.0,0.186
1933.67,912.5,0.185
1934.272,913.0,0.185
1934.877,913.5,0.185
1935.482,914.0,0.185
1936.088,914.5,0.185
1936.69,915.0,0.185
1937.294,915.5,0.185
1937.9,916.0,0.185
1938.502,916.5,0.185
1939.103,917.0,0.185
1939.704,917.5,0.185
1940.306,918.0,0.185
1940.908,918.5,0.185
1941.516,919.0,0.185
1942.124,919.5,0.185
1942.723,920.0,0.185
1943.323,920.5,0.185
1943.922,921.0,0.184
1944.526,921.5,0.184
1945.13,922.0,0.184
1945.731,922.5,0.184
1946.332,923.0,0.184
1946.933,923.5,0.184
1947.535,924.0,0.184
1948.138,924.5,0.184
1948.741,925.0,0.184
1949.346,925.5,0.184
1949.954,926.0,0.184
1950.549,926.5,0.184
1951.145,927.0,0.184
1951.742,927.5,0.184
1952.348,928.0,0.184
1952.96,928.5,0.184
1953.556,929.0,0.184
1954.155,929.5,0.184
1954.763,930.0,0.184
1955.364,930.5,0.184
1955.961,931.0,0.183
1956.565,931.5,0.183
1957.17,932.0,0.183
1957.772,932.5,0.183
1958.373,933.0,0.183
1958.974,933.5,0.183
1959.576,934.0,0.183
1960.178,934.5,0.183
1960.781,935.0,0.183
1961.382,935.5,0.183
1961.983,936.0,0.183
1962.584,936.5,0.183
1963.186,937.0,0.183
1963.788,937.5,0.183
1964.39,938.0,0.183
1964.992,938.5,0.183
1965.592,939.0,0.183
1966.193,939.5,0.183
1966.796,940.0,0.182
1967.399,940.5,0.182
1968.001,941.0,0.182
1968.601,941.5,0.182
1969.202,942.0,0.182
1969.805,942.5,0.182
1970.406,943.0,0.182
1971.006,943.5,0.182
1971.61,944.0,0.182
1972.214,944.5,0.182
1972.817,945.0,0.182
1973.415,945.5,0.182
1974.012,946.0,0.182
1974.616,946.5,0.182
1975.218,947.0,0.182
1975.818,947.5,0.182
1976.419,948.0,0.182
1977.02,948.5,0.182
1977.622,949.0,0.182
1978.224,949.5,0.182
1978.828,950.0,0.182
1979.43,950.5,0.182
1980.032,951.0,0.182
1980.632,951.5,0.182
1981.23,952.0,0.182
1981.827,952.5,0.181
1982.429,953.0,0.181
1983.034,953.5,0.181
1983.632,954.0,0.181
1984.231,954.5,0.181
1984.831,955.0,0.181
1985.43,955.5,0.181
1986.03,956.0,0.181
1986.626,956.5,0.181
1987.225,957.0,0.181
1987.831,957.5,0.181
1988.429,958.0,0.181
1989.024,958.5,0.181
1989.626,959.0,0.181
1990.226,959.5,0.181
1990.825,960.0,0.181
1991.427,960.5,0.181
1992.029,961.0,0.181
1992.631,961.5,0.181
1993.232,962.0,0.181
1993.832,962.5,0.181
1994.433,963.0,0.181
1995.035,963.5,0.181
1995.64,964.0,0.181
1996.24,964.5,0.181
1996.835,965.0,0.18
1997.434,965.5,0.18
1998.036,966.0,0.18
1998.633,966.5,0.18
1999.233,967.0,0.18
1999.835,967.5,0.18
2000.434,968.0,0.18
2001.031,968.5,0.18
2001.629,969.0,0.18
2002.228,969.5,0.18
2002.828,970.0,0.18
2003.427,970.5,0.18
2004.025,971.0,0.18
2004.625,971.5,0.18
2005.224,972.0,0.18
2005.825,972.5,0.18
2006.427,973.0,0.18
2007.03,973.5,0.18
2007.624,974.0,0.179
2008.218,974.5,0.179
2008.812,975.0,0.179
2009.415,975.5,0.179
2010.02,976.0,0.179
2010.615,976.5,0.179
2011.211,977.0,0.179
2011.811,977.5,0.179
2012.412,978.0,0.179
2013.013,978.5,0.179
2013.603,979.0,0.179
2014.199,979.5,0.179
2014.806,980.0,0.179
2015.405,980.5,0.179
2016.0,981.0,0.179
2016.605,981.5,0.179
2017.207,982.0,0.179
2017.803,982.5,0.179
2018.4,983.0,0.179
2018.996,983.5,0.179
2019.595,984.0,0.179
2020.193,984.5,0.179
2020.789,985.0,0.179
2021.386,985.5,0.179
2021.983,986.0,0.179
2022.581,986.5,0.179
2023.181,987.0,0.179
2023.784,987.5,0.179
2024.379,988.0,0.179
2024.969,988.5,0.179
2025.568,989.0,0.179
2026.167,989.5,0.179
2026.768,990.0,0.179
2027.368,990.5,0.179
2027.968,991.0,0.179
2028.565,991.5,0.179
2029.163,992.0,0.179
2029.764,992.5,0.179
2030.362,993.0,0.179
2030.961,993.5,0.179
2031.555,994.0,0.179
2032.15,994.5,0.179
2032.749,995.0,0.178
2033.348,995.5,0.178
2033.946,996.0,0.178
2034.544,996.5,0.178
2035.141,997.0,0.178
2035.737,997.5,0.178
2036.333,998.0,0.178
2036.931,998.5,0.178
2037.528,999.0,0.178
2038.127,999.5,0.178
2038.73,1000.0,0.178
2039.331,1000.5,0.178
2039.932,1001.0,0.178
2040.524,1001.5,0.178
2041.117,1002.0,0.178
2041.715,1002.5,0.178
2042.313,1003.0,0.178
2042.909,1003.5,0.178
2043.51,1004.0,0.178
2044.111,1004.5,0.178
2044.714,1005.0,0.178
2045.309,1005.5,0.178
2045.898,1006.0,0.177
2046.491,1006.5,0.177
2047.086,1007.0,0.177
2047.681,1007.5,0.177
2048.277,1008.0,0.177
2048.872,1008.5,0.177
2049.472,1009.0,0.177
2050.072,1009.5,0.177
2050.668,1010.0,0.177
2051.264,1010.5,0.177
2051.86,1011.0,0.177
2052.454,1011.5,0.177
2053.049,1012.0,0.177
2053.649,1012.5,0.177
2054.248,1013.0,0.177
2054.843,1013.5,0.177
2055.446,1014.0,0.177
2056.05,1014.5,0.177
2056.644,1015.0,0.177
2057.24,1015.5,0.177
2057.839,1016.0,0.177
2058.435,1016.5,0.177
2059.031,1017.0,0.177
2059.629,1017.5,0.177
2060.227,1018.0,0.177
2060.823,1018.5,0.177
2061.42,1019.0,0.177
2062.017,1019.5,0.177
2062.615,1020.0,0.177
2063.211,1020.5,0.177
2063.803,1021.0,0.176
2064.396,1021.5,0.176
2064.989,1022.0,0.176
2065.592,1022.5,0.176
2066.192,1023.0,0.176
2066.786,1023.5,0.176
2067.385,1024.0,0.176
2067.986,1024.5,0.176
2068.58,1025.0,0.176
2069.178,1025.5,0.176
2069.782,1026.0,0.176
2070.374,1026.5,0.176
2070.958,1027.0,0.176
2071.552,1027.5,0.176
2072.149,1028.0,0.176
2072.753,1028.5,0.176
2073.351,1029.0,0.176
2073.944,1029.5,0.176
2074.543,1030.0,0.176
2075.14,1030.5,0.176
2075.731,1031.0,0.176
2076.328,1031.5,0.176
2076.928,1032.0,0.176
2077.525,1032.5,0.176
2078.121,1033.0,0.176
2078.712,1033.5,0.176
2079.312,1034.0,0.176
2079.918,1034.5,0.176
2080.513,1035.0,0.176
2081.108,1035.5,0.176
2081.709,1036.0,0.176
2082.305,1036.5,0.176
2082.897,1037.0,0.175
2083.489,1037.5,0.175
2084.081,1038.0,0.175
2084.68,1038.5,0.175
2085.277,1039.0,0.175
2085.871,1039.5,0.175
2086.468,1040.0,0.175
2087.066,1040.5,0.175
2087.663,1041.0,0.175
2088.261,1041.5,0.175
2088.859,1042.0,0.175
2089.454,1042.5,0.175
2090.048,1043.0,0.175
2090.645,1043.5,0.175
2091.241,1044.0,0.175
2091.835,1044.5,0.175
2092.435,1045.0,0.175
2093.037,1045.5,0.175
2093.634,1046.0,0.175
2094.232,1046.5,0.175
2094.832,1047.0,0.175
2095.428,1047.5,0.175
2096.021,1048.0,0.175
2096.618,1048.5,0.175
2097.217,1049.0,0.175
2097.818,1049.5,0.175
2098.415,1050.0,0.175
2099.011,1050.5,0.175
2099.605,1051.0,0.175
2100.202,1051.5,0.175
2100.802,1052.0,0.175
2101.401,1052.5,0.175
2102.0,1053.0,0.175
2102.599,1053.5,0.175
2103.169,1054.0,0.175
2103.681,1054.5,0.175
2104.521,1055.0,0.175
2105.876,1055.5,0.174
2106.847,1056.0,0.174
2107.741,1056.5,0.174
2108.624,1057.0,0.174
2109.529,1057.5,0.174
2110.477,1058.0,0.174
2111.463,1058.5,0.174
2112.483,1059.0,0.174
2113.543,1059.5,0.174
2114.66,1060.0,0.174
2115.83,1060.5,0.174
2117.049,1061.0,0.174
2118.336,1061.5,0.174
2119.694,1062.0,0.174
2121.144,1062.5,0.174
2122.663,1063.0,0.174
2124.0,1063.423,0.174
2134.0,1065.93,0.174
2144.0,1067.647,0.173
2154.0,1068.861,0.173
2164.0,1069.711,0.173
2174.0,1070.326,0.173
2184.0,1070.772,0.172
2194.0,1071.111,0.172
2204.0,1071.378,0.172
2214.0,1071.579,0.172
2224.0,1071.755,0.172
2234.0,1071.894,0.172
2244.0,1072.007,0.172
2254.0,1072.106,0.171
2264.0,1072.198,0.171
2274.0,1072.275,0.171
2284.0,1072.336,0.171
2294.0,1072.393,0.171
2304.0,1072.444,0.17
2314.0,1072.483,0.17
2324.0,1072.519,0.17
2334.0,1072.553,0.17
2344.0,1072.591,0.17
2354.0,1072.619,0.17
2364.0,1072.647,0.17
2374.0,1072.663,0.169
2384.0,1072.68,0.169
2394.0,1072.692,0.169
2404.0,1072.7,0.169
2414.0,1072.723,0.169
2424.0,1072.725,0.169
