Time (s),Temperature (K),Mass (mg)
0.0,305.0,0.989
4.0,304.974,0.988
9.0,304.953,0.987
24.0,304.879,0.986
29.0,304.875,0.985
37.0,304.849,0.984
48.0,304.803,0.983
59.0,304.763,0.982
73.0,304.748,0.981
84.0,304.722,0.98
97.0,304.713,0.979
109.0,304.688,0.978
130.0,304.669,0.977
133.0,304.663,0.978
149.0,304.612,0.977
163.0,304.62,0.976
192.0,304.586,0.975
207.0,304.577,0.974
247.0,304.543,0.973
248.0,304.531,0.974
267.0,304.525,0.973
332.0,304.485,0.972
394.0,304.477,0.971
404.0,304.465,0.972
414.0,304.476,0.971
438.0,304.474,0.972
448.0,304.477,0.971
513.0,304.462,0.97
521.0,304.457,0.971
527.0,304.468,0.97
546.0,304.452,0.971
554.0,304.454,0.97
559.0,304.461,0.971
575.0,304.44,0.97
747.0,304.45,0.969
771.0,304.451,0.97
782.0,304.456,0.969
1088.0,304.442,0.968
1099.0,304.463,0.969
1142.0,304.433,0.968
1152.0,304.447,0.969
1160.0,304.45,0.968
1171.0,304.454,0.969
1175.0,304.444,0.968
1184.0,304.44,0.969
1199.0,304.459,0.968
1203.862,305.0,0.967
1205.048,305.5,0.967
1206.01,306.0,0.966
1206.842,306.5,0.966
1207.629,307.0,0.966
1208.475,307.5,0.966
1209.377,308.0,0.966
1210.235,308.5,0.966
1211.009,309.0,0.966
1211.721,309.5,0.967
1212.428,310.0,0.967
1213.121,310.5,0.968
1213.772,311.0,0.968
1214.429,311.5,0.968
1215.086,312.0,0.969
1215.714,312.5,0.969
1216.347,313.0,0.969
1216.982,313.5,0.97
1217.601,314.0,0.97
1218.219,314.5,0.97
1218.839,315.0,0.971
1219.448,315.5,0.971
1220.055,316.0,0.971
1220.664,316.5,0.971
1221.266,317.0,0.971
1221.86,317.5,0.971
1222.466,318.0,0.971
1223.076,318.5,0.971
1223.677,319.0,0.971
1224.273,319.5,0.971
1224.865,320.0,0.971
1225.474,320.5,0.971
1226.083,321.0,0.971
1226.671,321.5,0.97
1227.265,322.0,0.97
1227.867,322.5,0.97
1228.468,323.0,0.97
1229.068,323.5,0.97
1229.672,324.0,0.97
1230.273,324.5,0.97
1230.869,325.0,0.969
1231.468,325.5,0.969
1232.068,326.0,0.969
1232.665,326.5,0.969
1233.265,327.0,0.969
1233.866,327.5,0.969
1234.46,328.0,0.969
1235.053,328.5,0.968
1235.651,329.0,0.968
1236.246,329.5,0.968
1236.838,330.0,0.968
1237.442,330.5,0.968
1238.05,331.0,0.968
1238.645,331.5,0.967
1239.241,332.0,0.967
1239.837,332.5,0.967
1240.434,333.0,0.967
1241.031,333.5,0.967
1241.626,334.0,0.967
1242.225,334.5,0.967
1242.829,335.0,0.967
1243.438,335.5,0.967
1244.049,336.0,0.967
1244.643,336.5,0.966
1245.239,337.0,0.966
1245.835,337.5,0.966
1246.437,338.0,0.966
1247.04,338.5,0.966
1247.642,339.0,0.966
1248.242,339.5,0.966
1248.839,340.0,0.966
1249.44,340.5,0.966
1250.042,341.0,0.966
1250.647,341.5,0.965
1251.252,342.0,0.965
1251.856,342.5,0.965
1252.457,343.0,0.965
1253.056,343.5,0.965
1253.656,344.0,0.965
1254.256,344.5,0.965
1254.857,345.0,0.965
1255.469,345.5,0.965
1256.081,346.0,0.965
1256.675,346.5,0.964
1257.271,347.0,0.964
1257.872,347.5,0.964
1258.475,348.0,0.964
1259.079,348.5,0.964
1259.677,349.0,0.964
1260.274,349.5,0.964
1260.87,350.0,0.963
1261.474,350.5,0.963
1262.08,351.0,0.963
1262.684,351.5,0.963
1263.285,352.0,0.963
1263.883,352.5,0.963
1264.481,353.0,0.963
1265.081,353.5,0.962
1265.692,354.0,0.962
1266.3,354.5,0.962
1266.906,355.0,0.962
1267.503,355.5,0.962
1268.101,356.0,0.962
1268.707,356.5,0.961
1269.307,357.0,0.961
1269.902,357.5,0.961
1270.509,358.0,0.961
1271.115,358.5,0.961
1271.71,359.0,0.961
1272.311,359.5,0.961
1272.919,360.0,0.961
1273.518,360.5,0.961
1274.119,361.0,0.961
1274.732,361.5,0.961
1275.335,362.0,0.961
1275.932,362.5,0.96
1276.531,363.0,0.96
1277.133,363.5,0.96
1277.748,364.0,0.96
1278.347,364.5,0.96
1278.934,365.0,0.96
1279.533,365.5,0.96
1280.136,366.0,0.96
1280.747,366.5,0.96
1281.351,367.0,0.96
1281.95,367.5,0.96
1282.554,368.0,0.96
1283.159,368.5,0.96
1283.76,369.0,0.96
1284.364,369.5,0.96
1284.97,370.0,0.959
1285.568,370.5,0.959
1286.167,371.0,0.959
1286.771,371.5,0.959
1287.372,372.0,0.959
1287.969,372.5,0.959
1288.574,373.0,0.959
1289.177,373.5,0.959
1289.776,374.0,0.959
1290.381,374.5,0.959
1290.989,375.0,0.959
1291.592,375.5,0.959
1292.191,376.0,0.959
1292.782,376.5,0.959
1293.386,377.0,0.959
1293.996,377.5,0.958
1294.601,378.0,0.958
1295.206,378.5,0.958
1295.812,379.0,0.958
1296.412,379.5,0.958
1297.009,380.0,0.958
1297.603,380.5,0.958
1298.199,381.0,0.958
1298.803,381.5,0.958
1299.399,382.0,0.958
1299.992,382.5,0.958
1300.603,383.0,0.958
1301.209,383.5,0.958
1301.803,384.0,0.958
1302.407,384.5,0.958
1303.016,385.0,0.958
1303.612,385.5,0.958
1304.211,386.0,0.958
1304.812,386.5,0.958
1305.412,387.0,0.958
1306.011,387.5,0.958
1306.618,388.0,0.958
1307.224,388.5,0.958
1307.828,389.0,0.958
1308.427,389.5,0.958
1309.025,390.0,0.958
1309.614,390.5,0.957
1310.211,391.0,0.957
1310.821,391.5,0.957
1311.42,392.0,0.957
1312.016,392.5,0.957
1312.617,393.0,0.957
1313.221,393.5,0.957
1313.827,394.0,0.957
1314.428,394.5,0.957
1315.026,395.0,0.957
1315.617,395.5,0.957
1316.21,396.0,0.957
1316.807,396.5,0.957
1317.409,397.0,0.957
1318.014,397.5,0.957
1318.614,398.0,0.957
1319.213,398.5,0.957
1319.811,399.0,0.957
1320.407,399.5,0.957
1321.002,400.0,0.957
1321.597,400.5,0.957
1322.197,401.0,0.957
1322.809,401.5,0.957
1323.405,402.0,0.957
1323.993,402.5,0.957
1324.598,403.0,0.957
1325.199,403.5,0.957
1325.79,404.0,0.957
1326.387,404.5,0.957
1326.989,405.0,0.957
1327.587,405.5,0.957
1328.183,406.0,0.957
1328.773,406.5,0.957
1329.367,407.0,0.957
1329.962,407.5,0.957
1330.563,408.0,0.957
1331.164,408.5,0.957
1331.762,409.0,0.957
1332.359,409.5,0.957
1332.955,410.0,0.957
1333.554,410.5,0.957
1334.152,411.0,0.957
1334.747,411.5,0.957
1335.343,412.0,0.957
1335.941,412.5,0.957
1336.536,413.0,0.957
1337.129,413.5,0.957
1337.722,414.0,0.957
1338.324,414.5,0.957
1338.936,415.0,0.957
1339.524,415.5,0.957
1340.111,416.0,0.957
1340.708,416.5,0.957
1341.3,417.0,0.957
1341.887,417.5,0.957
1342.482,418.0,0.957
1343.077,418.5,0.957
1343.671,419.0,0.957
1344.27,419.5,0.957
1344.874,420.0,0.957
1345.469,420.5,0.957
1346.062,421.0,0.957
1346.666,421.5,0.957
1347.264,422.0,0.957
1347.853,422.5,0.957
1348.442,423.0,0.957
1349.032,423.5,0.957
1349.628,424.0,0.957
1350.223,424.5,0.957
1350.817,425.0,0.957
1351.414,425.5,0.957
1352.012,426.0,0.957
1352.607,426.5,0.956
1353.198,427.0,0.956
1353.782,427.5,0.956
1354.374,428.0,0.956
1354.97,428.5,0.956
1355.565,429.0,0.956
1356.16,429.5,0.956
1356.758,430.0,0.956
1357.353,430.5,0.956
1357.947,431.0,0.956
1358.536,431.5,0.956
1359.125,432.0,0.956
1359.717,432.5,0.956
1360.314,433.0,0.956
1360.915,433.5,0.956
1361.502,434.0,0.956
1362.09,434.5,0.956
1362.687,435.0,0.956
1363.279,435.5,0.956
1363.865,436.0,0.956
1364.458,436.5,0.956
1365.053,437.0,0.956
1365.645,437.5,0.956
1366.239,438.0,0.956
1366.837,438.5,0.956
1367.43,439.0,0.956
1368.021,439.5,0.956
1368.612,440.0,0.956
1369.202,440.5,0.956
1369.791,441.0,0.956
1370.384,441.5,0.956
1370.979,442.0,0.956
1371.562,442.5,0.956
1372.147,443.0,0.956
1372.741,443.5,0.956
1373.335,444.0,0.956
1373.93,444.5,0.956
1374.513,445.0,0.956
1375.095,445.5,0.956
1375.683,446.0,0.956
1376.274,446.5,0.956
1376.871,447.0,0.956
1377.464,447.5,0.956
1378.056,448.0,0.956
1378.643,448.5,0.956
1379.231,449.0,0.956
1379.82,449.5,0.956
1380.409,450.0,0.956
1380.998,450.5,0.955
1381.593,451.0,0.955
1382.186,451.5,0.955
1382.776,452.0,0.955
1383.363,452.5,0.955
1383.95,453.0,0.955
1384.536,453.5,0.955
1385.123,454.0,0.955
1385.712,454.5,0.955
1386.297,455.0,0.955
1386.876,455.5,0.955
1387.462,456.0,0.955
1388.051,456.5,0.955
1388.647,457.0,0.955
1389.242,457.5,0.955
1389.835,458.0,0.954
1390.417,458.5,0.954
1390.994,459.0,0.954
1391.591,459.5,0.954
1392.185,460.0,0.954
1392.77,460.5,0.954
1393.352,461.0,0.954
1393.934,461.5,0.954
1394.526,462.0,0.954
1395.117,462.5,0.954
1395.703,463.0,0.954
1396.286,463.5,0.954
1396.868,464.0,0.953
1397.449,464.5,0.953
1398.031,465.0,0.953
1398.626,465.5,0.953
1399.219,466.0,0.953
1399.809,466.5,0.953
1400.389,467.0,0.953
1400.964,467.5,0.953
1401.546,468.0,0.953
1402.13,468.5,0.953
1402.724,469.0,0.953
1403.314,469.5,0.953
1403.901,470.0,0.952
1404.496,470.5,0.952
1405.091,471.0,0.952
1405.677,471.5,0.952
1406.258,472.0,0.952
1406.835,472.5,0.952
1407.419,473.0,0.952
1408.006,473.5,0.952
1408.597,474.0,0.952
1409.183,474.5,0.952
1409.758,475.0,0.951
1410.344,475.5,0.951
1410.936,476.0,0.951
1411.519,476.5,0.951
1412.101,477.0,0.951
1412.689,477.5,0.951
1413.274,478.0,0.951
1413.856,478.5,0.951
1414.444,479.0,0.951
1415.034,479.5,0.95
1415.626,480.0,0.95
1416.213,480.5,0.95
1416.794,481.0,0.95
1417.374,481.5,0.95
1417.956,482.0,0.949
1418.533,482.5,0.949
1419.112,483.0,0.949
1419.704,483.5,0.948
1420.293,484.0,0.948
1420.88,484.5,0.948
1421.464,485.0,0.948
1422.047,485.5,0.948
1422.633,486.0,0.947
1423.219,486.5,0.947
1423.804,487.0,0.947
1424.389,487.5,0.947
1424.973,488.0,0.947
1425.559,488.5,0.946
1426.143,489.0,0.946
1426.726,489.5,0.946
1427.308,490.0,0.946
1427.889,490.5,0.946
1428.476,491.0,0.946
1429.064,491.5,0.946
1429.648,492.0,0.945
1430.231,492.5,0.945
1430.811,493.0,0.945
1431.392,493.5,0.945
1431.973,494.0,0.945
1432.557,494.5,0.945
1433.142,495.0,0.945
1433.731,495.5,0.944
1434.313,496.0,0.944
1434.889,496.5,0.944
1435.476,497.0,0.944
1436.065,497.5,0.944
1436.653,498.0,0.943
1437.24,498.5,0.943
1437.825,499.0,0.943
1438.407,499.5,0.943
1438.987,500.0,0.943
1439.575,500.5,0.943
1440.161,501.0,0.943
1440.74,501.5,0.942
1441.321,502.0,0.942
1441.905,502.5,0.942
1442.486,503.0,0.942
1443.068,503.5,0.942
1443.662,504.0,0.942
1444.248,504.5,0.942
1444.825,505.0,0.941
1445.405,505.5,0.941
1445.987,506.0,0.941
1446.565,506.5,0.941
1447.145,507.0,0.941
1447.736,507.5,0.941
1448.321,508.0,0.941
1448.901,508.5,0.94
1449.492,509.0,0.94
1450.082,509.5,0.94
1450.658,510.0,0.94
1451.237,510.5,0.94
1451.82,511.0,0.939
1452.404,511.5,0.939
1452.988,512.0,0.939
1453.572,512.5,0.939
1454.158,513.0,0.939
1454.751,513.5,0.938
1455.337,514.0,0.938
1455.918,514.5,0.938
1456.504,515.0,0.938
1457.091,515.5,0.938
1457.672,516.0,0.937
1458.25,516.5,0.937
1458.824,517.0,0.937
1459.404,517.5,0.937
1459.987,518.0,0.936
1460.57,518.5,0.936
1461.153,519.0,0.936
1461.739,519.5,0.935
1462.324,520.0,0.935
1462.908,520.5,0.935
1463.49,521.0,0.935
1464.072,521.5,0.935
1464.657,522.0,0.934
1465.244,522.5,0.934
1465.836,523.0,0.934
1466.414,523.5,0.934
1466.986,524.0,0.933
1467.572,524.5,0.933
1468.159,525.0,0.933
1468.746,525.5,0.932
1469.332,526.0,0.932
1469.917,526.5,0.932
1470.497,527.0,0.932
1471.077,527.5,0.931
1471.667,528.0,0.931
1472.252,528.5,0.931
1472.831,529.0,0.93
1473.415,529.5,0.93
1474.002,530.0,0.93
1474.584,530.5,0.929
1475.166,531.0,0.929
1475.747,531.5,0.929
1476.331,532.0,0.929
1476.918,532.5,0.928
1477.509,533.0,0.928
1478.099,533.5,0.928
1478.677,534.0,0.927
1479.26,534.5,0.927
1479.847,535.0,0.927
1480.433,535.5,0.927
1481.018,536.0,0.926
1481.594,536.5,0.925
1482.174,537.0,0.925
1482.765,537.5,0.925
1483.35,538.0,0.925
1483.931,538.5,0.924
1484.512,539.0,0.923
1485.093,539.5,0.923
1485.68,540.0,0.923
1486.265,540.5,0.923
1486.847,541.0,0.922
1487.431,541.5,0.922
1488.015,542.0,0.921
1488.603,542.5,0.92
1489.19,543.0,0.92
1489.775,543.5,0.92
1490.362,544.0,0.92
1490.951,544.5,0.919
1491.533,545.0,0.918
1492.115,545.5,0.918
1492.697,546.0,0.917
1493.281,546.5,0.917
1493.867,547.0,0.916
1494.454,547.5,0.916
1495.041,548.0,0.915
1495.627,548.5,0.914
1496.213,549.0,0.914
1496.797,549.5,0.914
1497.38,550.0,0.914
1497.963,550.5,0.913
1498.547,551.0,0.912
1499.131,551.5,0.912
1499.716,552.0,0.911
1500.301,552.5,0.911
1500.885,553.0,0.91
1501.471,553.5,0.91
1502.057,554.0,0.909
1502.638,554.5,0.908
1503.221,555.0,0.908
1503.807,555.5,0.907
1504.391,556.0,0.907
1504.975,556.5,0.906
1505.56,557.0,0.905
1506.145,557.5,0.905
1506.736,558.0,0.904
1507.326,558.5,0.903
1507.915,559.0,0.902
1508.501,559.5,0.901
1509.087,560.0,0.901
1509.675,560.5,0.9
1510.261,561.0,0.9
1510.847,561.5,0.899
1511.431,562.0,0.898
1512.015,562.5,0.897
1512.601,563.0,0.896
1513.187,563.5,0.896
1513.77,564.0,0.895
1514.353,564.5,0.895
1514.936,565.0,0.894
1515.527,565.5,0.893
1516.117,566.0,0.892
1516.699,566.5,0.891
1517.284,567.0,0.891
1517.874,567.5,0.89
1518.461,568.0,0.889
1519.048,568.5,0.888
1519.633,569.0,0.887
1520.221,569.5,0.887
1520.815,570.0,0.886
1521.403,570.5,0.885
1521.988,571.0,0.884
1522.576,571.5,0.883
1523.163,572.0,0.883
1523.745,572.5,0.882
1524.332,573.0,0.881
1524.922,573.5,0.88
1525.507,574.0,0.879
1526.091,574.5,0.879
1526.674,575.0,0.878
1527.26,575.5,0.877
1527.847,576.0,0.876
1528.437,576.5,0.875
1529.029,577.0,0.874
1529.622,577.5,0.873
1530.211,578.0,0.873
1530.792,578.5,0.871
1531.377,579.0,0.87
1531.965,579.5,0.869
1532.556,580.0,0.868
1533.146,580.5,0.868
1533.736,581.0,0.867
1534.324,581.5,0.866
1534.91,582.0,0.865
1535.498,582.5,0.864
1536.087,583.0,0.863
1536.673,583.5,0.862
1537.261,584.0,0.86
1537.85,584.5,0.859
1538.437,585.0,0.859
1539.024,585.5,0.858
1539.624,586.0,0.857
1540.217,586.5,0.856
1540.798,587.0,0.854
1541.384,587.5,0.853
1541.974,588.0,0.852
1542.565,588.5,0.851
1543.156,589.0,0.85
1543.747,589.5,0.849
1544.332,590.0,0.847
1544.913,590.5,0.846
1545.505,591.0,0.845
1546.099,591.5,0.844
1546.687,592.0,0.843
1547.275,592.5,0.841
1547.863,593.0,0.84
1548.45,593.5,0.839
1549.038,594.0,0.838
1549.628,594.5,0.837
1550.219,595.0,0.836
1550.812,595.5,0.834
1551.402,596.0,0.833
1551.992,596.5,0.831
1552.589,597.0,0.83
1553.184,597.5,0.829
1553.775,598.0,0.827
1554.366,598.5,0.826
1554.956,599.0,0.824
1555.54,599.5,0.823
1556.125,600.0,0.822
1556.718,600.5,0.82
1557.309,601.0,0.818
1557.898,601.5,0.817
1558.488,602.0,0.816
1559.079,602.5,0.814
1559.669,603.0,0.813
1560.259,603.5,0.811
1560.852,604.0,0.809
1561.448,604.5,0.808
1562.045,605.0,0.806
1562.633,605.5,0.805
1563.221,606.0,0.803
1563.81,606.5,0.802
1564.403,607.0,0.8
1564.998,607.5,0.798
1565.585,608.0,0.796
1566.173,608.5,0.794
1566.763,609.0,0.793
1567.357,609.5,0.791
1567.953,610.0,0.789
1568.546,610.5,0.787
1569.136,611.0,0.786
1569.724,611.5,0.784
1570.316,612.0,0.782
1570.912,612.5,0.78
1571.508,613.0,0.778
1572.103,613.5,0.777
1572.686,614.0,0.775
1573.277,614.5,0.773
1573.875,615.0,0.771
1574.471,615.5,0.769
1575.067,616.0,0.767
1575.663,616.5,0.765
1576.257,617.0,0.763
1576.846,617.5,0.761
1577.436,618.0,0.759
1578.027,618.5,0.757
1578.621,619.0,0.755
1579.216,619.5,0.752
1579.814,620.0,0.751
1580.41,620.5,0.748
1581.006,621.0,0.746
1581.598,621.5,0.744
1582.192,622.0,0.741
1582.791,622.5,0.739
1583.386,623.0,0.736
1583.979,623.5,0.734
1584.573,624.0,0.732
1585.167,624.5,0.729
1585.759,625.0,0.727
1586.349,625.5,0.725
1586.94,626.0,0.722
1587.539,626.5,0.72
1588.138,627.0,0.717
1588.732,627.5,0.715
1589.329,628.0,0.713
1589.926,628.5,0.71
1590.518,629.0,0.708
1591.111,629.5,0.706
1591.708,630.0,0.703
1592.304,630.5,0.7
1592.897,631.0,0.698
1593.491,631.5,0.695
1594.086,632.0,0.693
1594.684,632.5,0.69
1595.284,633.0,0.688
1595.885,633.5,0.685
1596.479,634.0,0.682
1597.073,634.5,0.68
1597.672,635.0,0.677
1598.27,635.5,0.674
1598.868,636.0,0.672
1599.465,636.5,0.669
1600.062,637.0,0.666
1600.662,637.5,0.663
1601.261,638.0,0.661
1601.86,638.5,0.658
1602.455,639.0,0.655
1603.05,639.5,0.653
1603.644,640.0,0.65
1604.242,640.5,0.647
1604.843,641.0,0.644
1605.438,641.5,0.641
1606.032,642.0,0.639
1606.633,642.5,0.636
1607.233,643.0,0.633
1607.834,643.5,0.63
1608.436,644.0,0.627
1609.037,644.5,0.624
1609.628,645.0,0.621
1610.222,645.5,0.618
1610.819,646.0,0.615
1611.418,646.5,0.612
1612.019,647.0,0.609
1612.621,647.5,0.606
1613.222,648.0,0.603
1613.822,648.5,0.6
1614.421,649.0,0.597
1615.018,649.5,0.594
1615.615,650.0,0.591
1616.212,650.5,0.588
1616.811,651.0,0.585
1617.412,651.5,0.582
1618.013,652.0,0.579
1618.621,652.5,0.576
1619.223,653.0,0.573
1619.815,653.5,0.569
1620.42,654.0,0.566
1621.03,654.5,0.563
1621.632,655.0,0.56
1622.232,655.5,0.557
1622.83,656.0,0.553
1623.429,656.5,0.55
1624.029,657.0,0.547
1624.628,657.5,0.543
1625.23,658.0,0.54
1625.836,658.5,0.537
1626.442,659.0,0.533
1627.046,659.5,0.53
1627.642,660.0,0.526
1628.241,660.5,0.523
1628.844,661.0,0.519
1629.446,661.5,0.515
1630.047,662.0,0.512
1630.652,662.5,0.508
1631.257,663.0,0.504
1631.864,663.5,0.501
1632.464,664.0,0.497
1633.062,664.5,0.494
1633.673,665.0,0.49
1634.28,665.5,0.486
1634.883,666.0,0.483
1635.481,666.5,0.479
1636.079,667.0,0.475
1636.69,667.5,0.471
1637.296,668.0,0.467
1637.898,668.5,0.464
1638.5,669.0,0.46
1639.102,669.5,0.455
1639.705,670.0,0.451
1640.311,670.5,0.447
1640.921,671.0,0.443
1641.524,671.5,0.439
1642.126,672.0,0.435
1642.725,672.5,0.431
1643.328,673.0,0.427
1643.937,673.5,0.422
1644.54,674.0,0.418
1645.145,674.5,0.414
1645.753,675.0,0.41
1646.357,675.5,0.405
1646.959,676.0,0.401
1647.57,676.5,0.397
1648.181,677.0,0.393
1648.794,677.5,0.388
1649.398,678.0,0.384
1649.998,678.5,0.38
1650.589,679.0,0.376
1651.187,679.5,0.372
1651.796,680.0,0.367
1652.405,680.5,0.363
1653.012,681.0,0.359
1653.617,681.5,0.355
1654.219,682.0,0.35
1654.818,682.5,0.346
1655.423,683.0,0.342
1656.03,683.5,0.338
1656.639,684.0,0.334
1657.247,684.5,0.33
1657.852,685.0,0.326
1658.455,685.5,0.322
1659.057,686.0,0.319
1659.662,686.5,0.315
1660.27,687.0,0.311
1660.881,687.5,0.308
1661.481,688.0,0.304
1662.079,688.5,0.301
1662.678,689.0,0.297
1663.279,689.5,0.294
1663.884,690.0,0.291
1664.49,690.5,0.288
1665.095,691.0,0.286
1665.698,691.5,0.283
1666.297,692.0,0.28
1666.895,692.5,0.277
1667.507,693.0,0.274
1668.118,693.5,0.273
1668.717,694.0,0.27
1669.319,694.5,0.268
1669.926,695.0,0.265
1670.53,695.5,0.263
1671.133,696.0,0.262
1671.74,696.5,0.26
1672.344,697.0,0.258
1672.945,697.5,0.256
1673.55,698.0,0.255
1674.156,698.5,0.254
1674.762,699.0,0.252
1675.367,699.5,0.251
1675.973,700.0,0.25
1676.571,700.5,0.249
1677.171,701.0,0.248
1677.779,701.5,0.246
1678.384,702.0,0.246
1678.988,702.5,0.245
1679.592,703.0,0.244
1680.196,703.5,0.244
1680.802,704.0,0.243
1681.408,704.5,0.243
1682.013,705.0,0.242
1682.613,705.5,0.241
1683.216,706.0,0.241
1683.823,706.5,0.24
1684.429,707.0,0.24
1685.034,707.5,0.239
1685.636,708.0,0.239
1686.24,708.5,0.239
1686.845,709.0,0.238
1687.45,709.5,0.238
1688.056,710.0,0.237
1688.664,710.5,0.237
1689.272,711.0,0.237
1689.88,711.5,0.236
1690.491,712.0,0.236
1691.102,712.5,0.236
1691.706,713.0,0.235
1692.309,713.5,0.235
1692.911,714.0,0.234
1693.513,714.5,0.234
1694.114,715.0,0.234
1694.714,715.5,0.233
1695.324,716.0,0.233
1695.942,716.5,0.233
1696.547,717.0,0.232
1697.151,717.5,0.232
1697.753,718.0,0.232
1698.355,718.5,0.232
1698.957,719.0,0.231
1699.568,719.5,0.231
1700.179,720.0,0.231
1700.787,720.5,0.23
1701.394,721.0,0.23
1702.001,721.5,0.23
1702.606,722.0,0.229
1703.212,722.5,0.229
1703.82,723.0,0.229
1704.422,723.5,0.229
1705.021,724.0,0.228
1705.63,724.5,0.228
1706.234,725.0,0.228
1706.833,725.5,0.227
1707.44,726.0,0.227
1708.051,726.5,0.227
1708.652,727.0,0.227
1709.258,727.5,0.227
1709.869,728.0,0.226
1710.475,728.5,0.226
1711.079,729.0,0.226
1711.686,729.5,0.225
1712.295,730.0,0.225
1712.906,730.5,0.225
1713.508,731.0,0.224
1714.11,731.5,0.224
1714.72,732.0,0.224
1715.329,732.5,0.224
1715.937,733.0,0.224
1716.542,733.5,0.223
1717.148,734.0,0.223
1717.752,734.5,0.223
1718.362,735.0,0.223
1718.974,735.5,0.222
1719.574,736.0,0.222
1720.177,736.5,0.222
1720.788,737.0,0.222
1721.393,737.5,0.222
1721.995,738.0,0.221
1722.598,738.5,0.221
1723.202,739.0,0.221
1723.811,739.5,0.22
1724.413,740.0,0.22
1725.011,740.5,0.22
1725.626,741.0,0.22
1726.238,741.5,0.22
1726.844,742.0,0.219
1727.448,742.5,0.219
1728.053,743.0,0.219
1728.664,743.5,0.218
1729.269,744.0,0.218
1729.867,744.5,0.218
1730.471,745.0,0.218
1731.077,745.5,0.218
1731.69,746.0,0.217
1732.298,746.5,0.217
1732.901,747.0,0.217
1733.507,747.5,0.217
1734.114,748.0,0.217
1734.72,748.5,0.216
1735.329,749.0,0.216
1735.941,749.5,0.216
1736.553,750.0,0.215
1737.161,750.5,0.215
1737.76,751.0,0.215
1738.361,751.5,0.215
1738.964,752.0,0.215
1739.578,752.5,0.214
1740.189,753.0,0.214
1740.79,753.5,0.214
1741.394,754.0,0.214
1742.0,754.5,0.214
1742.616,755.0,0.213
1743.224,755.5,0.213
1743.821,756.0,0.213
1744.426,756.5,0.213
1745.034,757.0,0.213
1745.641,757.5,0.212
1746.248,758.0,0.212
1746.857,758.5,0.212
1747.462,759.0,0.212
1748.066,759.5,0.212
1748.681,760.0,0.212
1749.29,760.5,0.212
1749.894,761.0,0.211
1750.499,761.5,0.211
1751.104,762.0,0.211
1751.701,762.5,0.211
1752.305,763.0,0.211
1752.914,763.5,0.21
1753.524,764.0,0.21
1754.134,764.5,0.21
1754.744,765.0,0.209
1755.351,765.5,0.209
1755.955,766.0,0.209
1756.565,766.5,0.209
1757.174,767.0,0.209
1757.777,767.5,0.208
1758.386,768.0,0.208
1758.998,768.5,0.208
1759.607,769.0,0.208
1760.213,769.5,0.208
1760.81,770.0,0.208
1761.419,770.5,0.208
1762.034,771.0,0.207
1762.638,771.5,0.207
1763.242,772.0,0.207
1763.846,772.5,0.207
1764.452,773.0,0.207
1765.06,773.5,0.206
1765.67,774.0,0.206
1766.28,774.5,0.206
1766.891,775.0,0.206
1767.494,775.5,0.206
1768.095,776.0,0.206
1768.699,776.5,0.205
1769.303,777.0,0.205
1769.907,777.5,0.205
1770.52,778.0,0.205
1771.132,778.5,0.205
1771.736,779.0,0.205
1772.343,779.5,0.205
1772.954,780.0,0.205
1773.559,780.5,0.204
1774.165,781.0,0.204
1774.773,781.5,0.204
1775.378,782.0,0.204
1775.982,782.5,0.204
1776.586,783.0,0.204
1777.192,783.5,0.204
1777.8,784.0,0.204
1778.409,784.5,0.204
1779.018,785.0,0.204
1779.621,785.5,0.203
1780.225,786.0,0.203
1780.832,786.5,0.203
1781.437,787.0,0.203
1782.043,787.5,0.203
1782.655,788.0,0.203
1783.263,788.5,0.203
1783.865,789.0,0.202
1784.478,789.5,0.202
1785.091,790.0,0.202
1785.691,790.5,0.202
1786.293,791.0,0.202
1786.897,791.5,0.202
1787.51,792.0,0.201
1788.121,792.5,0.201
1788.72,793.0,0.201
1789.326,793.5,0.201
1789.938,794.0,0.201
1790.536,794.5,0.201
1791.137,795.0,0.201
1791.749,795.5,0.201
1792.365,796.0,0.201
1792.984,796.5,0.201
1793.585,797.0,0.2
1794.189,797.5,0.2
1794.798,798.0,0.2
1795.401,798.5,0.2
1796.002,799.0,0.2
1796.617,799.5,0.2
1797.228,800.0,0.2
1797.833,800.5,0.2
1798.441,801.0,0.2
1799.051,801.5,0.199
1799.653,802.0,0.199
1800.256,802.5,0.199
1800.861,803.0,0.199
1801.469,803.5,0.199
1802.079,804.0,0.199
1802.695,804.5,0.199
1803.301,805.0,0.199
1803.9,805.5,0.198
1804.504,806.0,0.198
1805.109,806.5,0.198
1805.718,807.0,0.198
1806.324,807.5,0.198
1806.93,808.0,0.198
1807.541,808.5,0.198
1808.151,809.0,0.198
1808.757,809.5,0.197
1809.363,810.0,0.197
1809.97,810.5,0.197
1810.579,811.0,0.197
1811.187,811.5,0.197
1811.792,812.0,0.197
1812.399,812.5,0.197
1813.007,813.0,0.197
1813.607,813.5,0.197
1814.212,814.0,0.197
1814.828,814.5,0.196
1815.437,815.0,0.196
1816.045,815.5,0.196
1816.647,816.0,0.196
1817.252,816.5,0.196
1817.859,817.0,0.196
1818.468,817.5,0.196
1819.077,818.0,0.196
1819.68,818.5,0.196
1820.284,819.0,0.196
1820.89,819.5,0.195
1821.495,820.0,0.195
1822.102,820.5,0.195
1822.717,821.0,0.195
1823.328,821.5,0.195
1823.934,822.0,0.195
1824.545,822.5,0.195
1825.153,823.0,0.195
1825.757,823.5,0.195
1826.363,824.0,0.195
1826.97,824.5,0.194
1827.573,825.0,0.194
1828.178,825.5,0.194
1828.79,826.0,0.194
1829.398,826.5,0.194
1830.004,827.0,0.194
1830.606,827.5,0.194
1831.21,828.0,0.194
1831.819,828.5,0.194
1832.425,829.0,0.194
1833.03,829.5,0.194
1833.636,830.0,0.193
1834.246,830.5,0.193
1834.86,831.0,0.193
1835.468,831.5,0.193
1836.074,832.0,0.193
1836.677,832.5,0.193
1837.279,833.0,0.193
1837.881,833.5,0.193
1838.487,834.0,0.193
1839.094,834.5,0.193
1839.705,835.0,0.193
1840.312,835.5,0.193
1840.915,836.0,0.192
1841.524,836.5,0.192
1842.131,837.0,0.192
1842.734,837.5,0.192
1843.345,838.0,0.192
1843.963,838.5,0.192
1844.567,839.0,0.192
1845.17,839.5,0.192
1845.772,840.0,0.192
1846.376,840.5,0.192
1846.981,841.0,0.192
1847.589,841.5,0.192
1848.196,842.0,0.192
1848.8,842.5,0.192
1849.413,843.0,0.192
1850.029,843.5,0.191
1850.63,844.0,0.191
1851.234,844.5,0.191
1851.843,845.0,0.191
1852.448,845.5,0.191
1853.052,846.0,0.191
1853.659,846.5,0.191
1854.275,847.0,0.191
1854.904,847.5,0.191
1855.516,848.0,0.191
1856.124,848.5,0.191
1856.734,849.0,0.19
1857.343,849.5,0.19
1857.951,850.0,0.19
1858.558,850.5,0.19
1859.165,851.0,0.19
1859.773,851.5,0.19
1860.379,852.0,0.19
1860.985,852.5,0.19
1861.592,853.0,0.19
1862.201,853.5,0.19
1862.817,854.0,0.189
1863.419,854.5,0.189
1864.017,855.0,0.189
1864.626,855.5,0.189
1865.233,856.0,0.189
1865.836,856.5,0.189
1866.44,857.0,0.189
1867.045,857.5,0.189
1867.649,858.0,0.189
1868.258,858.5,0.189
1868.873,859.0,0.189
1869.483,859.5,0.189
1870.09,860.0,0.188
1870.689,860.5,0.188
1871.293,861.0,0.188
1871.9,861.5,0.188
1872.507,862.0,0.188
1873.112,862.5,0.188
1873.713,863.0,0.188
1874.316,863.5,0.188
1874.922,864.0,0.188
1875.529,864.5,0.188
1876.135,865.0,0.188
1876.74,865.5,0.188
1877.345,866.0,0.188
1877.949,866.5,0.188
1878.559,867.0,0.188
1879.167,867.5,0.188
1879.771,868.0,0.187
1880.376,868.5,0.187
1880.981,869.0,0.187
1881.586,869.5,0.187
1882.192,870.0,0.187
1882.801,870.5,0.187
1883.406,871.0,0.187
1884.008,871.5,0.187
1884.606,872.0,0.187
1885.21,872.5,0.187
1885.824,873.0,0.187
1886.437,873.5,0.187
1887.048,874.0,0.187
1887.653,874.5,0.186
1888.257,875.0,0.186
1888.861,875.5,0.186
1889.467,876.0,0.186
1890.073,876.5,0.186
1890.675,877.0,0.186
1891.28,877.5,0.186
1891.89,878.0,0.186
1892.492,878.5,0.186
1893.092,879.0,0.186
1893.697,879.5,0.186
1894.303,880.0,0.186
1894.908,880.5,0.186
1895.512,881.0,0.185
1896.116,881.5,0.185
1896.721,882.0,0.185
1897.326,882.5,0.185
1897.933,883.0,0.185
1898.536,883.5,0.185
1899.14,884.0,0.185
1899.747,884.5,0.185
1900.355,885.0,0.185
1900.962,885.5,0.185
1901.571,886.0,0.185
1902.176,886.5,0.185
1902.776,887.0,0.185
1903.377,887.5,0.185
1903.978,888.0,0.184
1904.586,888.5,0.184
1905.193,889.0,0.184
1905.799,889.5,0.184
1906.407,890.0,0.184
1907.017,890.5,0.184
1907.617,891.0,0.184
1908.218,891.5,0.184
1908.819,892.0,0.184
1909.427,892.5,0.184
1910.036,893.0,0.184
1910.642,893.5,0.183
1911.247,894.0,0.183
1911.85,894.5,0.183
1912.452,895.0,0.183
1913.054,895.5,0.183
1913.657,896.0,0.183
1914.262,896.5,0.183
1914.87,897.0,0.183
1915.475,897.5,0.183
1916.08,898.0,0.183
1916.687,898.5,0.183
1917.291,899.0,0.183
1917.892,899.5,0.183
1918.495,900.0,0.183
1919.099,900.5,0.183
1919.709,901.0,0.182
1920.311,901.5,0.182
1920.906,902.0,0.182
1921.51,902.5,0.182
1922.115,903.0,0.182
1922.713,903.5,0.182
1923.317,904.0,0.182
1923.928,904.5,0.182
1924.533,905.0,0.182
1925.137,905.5,0.182
1925.742,906.0,0.182
1926.347,906.5,0.182
1926.952,907.0,0.182
1927.547,907.5,0.182
1928.145,908.0,0.182
1928.752,908.5,0.182
1929.355,909.0,0.182
1929.956,909.5,0.181
1930.556,910.0,0.181
1931.159,910.5,0.181
1931.767,911.0,0.181
1932.372,911.5,0.181
1932.977,912.0,0.181
1933.578,912.5,0.181
1934.179,913.0,0.181
1934.779,913.5,0.181
1935.382,914.0,0.181
1935.987,914.5,0.181
1936.591,915.0,0.181
1937.193,915.5,0.181
1937.793,916.0,0.181
1938.396,916.5,0.181
1939.002,917.0,0.18
1939.608,917.5,0.18
1940.212,918.0,0.18
1940.811,918.5,0.18
1941.413,919.0,0.18
1942.016,919.5,0.18
1942.618,920.0,0.18
1943.22,920.5,0.18
1943.821,921.0,0.18
1944.425,921.5,0.18
1945.031,922.0,0.18
1945.622,922.5,0.18
1946.219,923.0,0.18
1946.826,923.5,0.18
1947.433,924.0,0.18
1948.04,924.5,0.18
1948.64,925.0,0.179
1949.24,925.5,0.179
1949.839,926.0,0.179
1950.443,926.5,0.179
1951.048,927.0,0.179
1951.647,927.5,0.179
1952.248,928.0,0.179
1952.852,928.5,0.179
1953.451,929.0,0.179
1954.048,929.5,0.179
1954.651,930.0,0.179
1955.256,930.5,0.179
1955.862,931.0,0.179
1956.458,931.5,0.179
1957.052,932.0,0.179
1957.658,932.5,0.179
1958.264,933.0,0.179
1958.869,933.5,0.178
1959.472,934.0,0.178
1960.073,934.5,0.178
1960.673,935.0,0.178
1961.273,935.5,0.178
1961.874,936.0,0.178
1962.475,936.5,0.178
1963.076,937.0,0.178
1963.673,937.5,0.178
1964.274,938.0,0.178
1964.88,938.5,0.178
1965.485,939.0,0.178
1966.089,939.5,0.178
1966.69,940.0,0.178
1967.291,940.5,0.178
1967.891,941.0,0.178
1968.493,941.5,0.178
1969.095,942.0,0.178
1969.696,942.5,0.178
1970.295,943.0,0.178
1970.894,943.5,0.177
1971.496,944.0,0.177
1972.1,944.5,0.177
1972.7,945.0,0.177
1973.298,945.5,0.177
1973.895,946.0,0.177
1974.496,946.5,0.177
1975.097,947.0,0.177
1975.699,947.5,0.177
1976.301,948.0,0.177
1976.904,948.5,0.177
1977.501,949.0,0.177
1978.098,949.5,0.177
1978.698,950.0,0.177
1979.295,950.5,0.177
1979.889,951.0,0.177
1980.487,951.5,0.177
1981.086,952.0,0.177
1981.695,952.5,0.177
1982.3,953.0,0.177
1982.903,953.5,0.177
1983.503,954.0,0.176
1984.102,954.5,0.176
1984.701,955.0,0.176
1985.3,955.5,0.176
1985.901,956.0,0.176
1986.502,956.5,0.176
1987.103,957.0,0.176
1987.703,957.5,0.176
1988.303,958.0,0.176
1988.904,958.5,0.176
1989.507,959.0,0.176
1990.11,959.5,0.176
1990.714,960.0,0.176
1991.315,960.5,0.176
1991.913,961.0,0.176
1992.511,961.5,0.176
1993.11,962.0,0.176
1993.705,962.5,0.176
1994.302,963.0,0.176
1994.902,963.5,0.176
1995.503,964.0,0.175
1996.104,964.5,0.175
1996.705,965.0,0.175
1997.305,965.5,0.175
1997.904,966.0,0.175
1998.5,966.5,0.175
1999.096,967.0,0.175
1999.697,967.5,0.175
2000.298,968.0,0.175
2000.9,968.5,0.175
2001.499,969.0,0.175
2002.098,969.5,0.175
2002.697,970.0,0.175
2003.297,970.5,0.175
2003.899,971.0,0.175
2004.494,971.5,0.175
2005.088,972.0,0.175
2005.685,972.5,0.174
2006.284,973.0,0.174
2006.886,973.5,0.174
2007.482,974.0,0.174
2008.078,974.5,0.174
2008.677,975.0,0.174
2009.274,975.5,0.174
2009.868,976.0,0.174
2010.471,976.5,0.174
2011.076,977.0,0.174
2011.676,977.5,0.174
2012.275,978.0,0.174
2012.872,978.5,0.174
2013.47,979.0,0.174
2014.068,979.5,0.174
2014.663,980.0,0.174
2015.263,980.5,0.174
2015.868,981.0,0.174
2016.468,981.5,0.174
2017.065,982.0,0.174
2017.658,982.5,0.174
2018.255,983.0,0.174
2018.855,983.5,0.173
2019.451,984.0,0.173
2020.045,984.5,0.173
2020.644,985.0,0.173
2021.241,985.5,0.173
2021.839,986.0,0.173
2022.441,986.5,0.173
2023.044,987.0,0.173
2023.639,987.5,0.173
2024.235,988.0,0.173
2024.833,988.5,0.173
2025.427,989.0,0.173
2026.02,989.5,0.173
2026.618,990.0,0.173
2027.217,990.5,0.173
2027.816,991.0,0.173
2028.415,991.5,0.173
2029.014,992.0,0.173
2029.61,992.5,0.173
2030.206,993.0,0.173
2030.803,993.5,0.173
2031.399,994.0,0.173
2031.995,994.5,0.173
2032.594,995.0,0.173
2033.194,995.5,0.173
2033.798,996.0,0.172
2034.394,996.5,0.172
2034.986,997.0,0.172
2035.578,997.5,0.172
2036.171,998.0,0.172
2036.767,998.5,0.172
2037.369,999.0,0.172
2037.975,999.5,0.172
2038.57,1000.0,0.172
2039.166,1000.5,0.172
2039.763,1001.0,0.172
2040.357,1001.5,0.172
2040.949,1002.0,0.172
2041.547,1002.5,0.172
2042.143,1003.0,0.172
2042.731,1003.5,0.171
2043.328,1004.0,0.171
2043.93,1004.5,0.171
2044.533,1005.0,0.171
2045.133,1005.5,0.171
2045.726,1006.0,0.171
2046.324,1006.5,0.171
2046.925,1007.0,0.171
2047.518,1007.5,0.171
2048.112,1008.0,0.171
2048.711,1008.5,0.171
2049.31,1009.0,0.171
2049.909,1009.5,0.171
2050.501,1010.0,0.171
2051.093,1010.5,0.171
2051.687,1011.0,0.171
2052.285,1011.5,0.171
2052.886,1012.0,0.171
2053.48,1012.5,0.171
2054.074,1013.0,0.171
2054.674,1013.5,0.17
2055.272,1014.0,0.17
2055.868,1014.5,0.17
2056.466,1015.0,0.17
2057.065,1015.5,0.17
2057.661,1016.0,0.17
2058.255,1016.5,0.17
2058.848,1017.0,0.17
2059.443,1017.5,0.17
2060.039,1018.0,0.17
2060.637,1018.5,0.17
2061.233,1019.0,0.17
2061.829,1019.5,0.17
2062.421,1020.0,0.17
2063.013,1020.5,0.17
2063.611,1021.0,0.169
2064.207,1021.5,0.169
2064.803,1022.0,0.169
2065.401,1022.5,0.169
2065.999,1023.0,0.169
2066.591,1023.5,0.169
2067.183,1024.0,0.169
2067.779,1024.5,0.169
2068.378,1025.0,0.169
2068.981,1025.5,0.169
2069.578,1026.0,0.169
2070.174,1026.5,0.169
2070.767,1027.0,0.169
2071.36,1027.5,0.169
2071.955,1028.0,0.169
2072.55,1028.5,0.169
2073.145,1029.0,0.169
2073.738,1029.5,0.169
2074.33,1030.0,0.169
2074.922,1030.5,0.169
2075.519,1031.0,0.168
2076.116,1031.5,0.168
2076.714,1032.0,0.168
2077.309,1032.5,0.168
2077.901,1033.0,0.168
2078.495,1033.5,0.168
2079.092,1034.0,0.168
2079.696,1034.5,0.168
2080.296,1035.0,0.168
2080.892,1035.5,0.168
2081.485,1036.0,0.168
2082.077,1036.5,0.168
2082.673,1037.0,0.168
2083.265,1037.5,0.168
2083.855,1038.0,0.168
2084.45,1038.5,0.168
2085.047,1039.0,0.168
2085.646,1039.5,0.168
2086.244,1040.0,0.168
2086.843,1040.5,0.168
2087.435,1041.0,0.168
2088.025,1041.5,0.168
2088.625,1042.0,0.167
2089.225,1042.5,0.167
2089.827,1043.0,0.167
2090.425,1043.5,0.167
2091.023,1044.0,0.167
2091.616,1044.5,0.167
2092.211,1045.0,0.167
2092.808,1045.5,0.167
2093.406,1046.0,0.167
2094.004,1046.5,0.167
2094.602,1047.0,0.167
2095.199,1047.5,0.167
2095.794,1048.0,0.167
2096.392,1048.5,0.167
2096.99,1049.0,0.167
2097.585,1049.5,0.167
2098.181,1050.0,0.167
2098.78,1050.5,0.167
2099.379,1051.0,0.167
2099.978,1051.5,0.167
2100.577,1052.0,0.167
2101.175,1052.5,0.167
2101.77,1053.0,0.167
2102.37,1053.5,0.167
2102.973,1054.0,0.167
2103.496,1054.5,0.167
2104.044,1055.0,0.167
2105.592,1055.5,0.166
2106.718,1056.0,0.166
2107.639,1056.5,0.166
2108.539,1057.0,0.166
2109.454,1057.5,0.166
2110.396,1058.0,0.166
2111.376,1058.5,0.166
2112.403,1059.0,0.166
2113.489,1059.5,0.166
2114.601,1060.0,0.166
2115.766,1060.5,0.166
2117.028,1061.0,0.166
2118.313,1061.5,0.165
2119.685,1062.0,0.165
2121.139,1062.5,0.165
2122.654,1063.0,0.165
2124.0,1063.415,0.165
2134.0,1065.935,0.165
2144.0,1067.659,0.165
2154.0,1068.863,0.164
2164.0,1069.724,0.164
2174.0,1070.335,0.164
2184.0,1070.789,0.164
2194.0,1071.127,0.163
2204.0,1071.396,0.163
2214.0,1071.608,0.163
2224.0,1071.768,0.163
2234.0,1071.911,0.162
2244.0,1072.02,0.162
2254.0,1072.123,0.162
2264.0,1072.204,0.162
2274.0,1072.283,0.162
2284.0,1072.34,0.161
2294.0,1072.401,0.161
2304.0,1072.445,0.161
2314.0,1072.492,0.161
2324.0,1072.525,0.161
2334.0,1072.56,0.161
2344.0,1072.592,0.161
2354.0,1072.619,0.161
2364.0,1072.652,0.16
2374.0,1072.669,0.16
2384.0,1072.683,0.16
2394.0,1072.696,0.16
2404.0,1072.721,0.16
2414.0,1072.731,0.16
2424.0,1072.744,0.16
