Time (s),Temperature (K),Mass (mg)
0.0,304.991,0.97
3.0,304.983,0.969
9.0,304.964,0.968
16.0,304.91,0.967
25.0,304.9,0.966
33.0,304.853,0.965
41.0,304.822,0.964
50.0,304.789,0.963
61.0,304.756,0.962
74.0,304.727,0.961
87.0,304.706,0.96
104.0,304.669,0.959
122.0,304.638,0.958
141.0,304.614,0.957
165.0,304.574,0.956
193.0,304.531,0.955
225.0,304.524,0.954
267.0,304.492,0.953
327.0,304.476,0.952
399.0,304.437,0.951
533.0,304.407,0.95
761.0,304.409,0.949
814.0,304.412,0.95
816.0,304.401,0.949
849.0,304.401,0.95
856.0,304.402,0.949
1204.118,305.0,0.947
1206.474,305.5,0.947
1208.182,306.0,0.946
1209.579,306.5,0.947
1210.908,307.0,0.948
1212.15,307.5,0.949
1213.387,308.0,0.95
1214.585,308.5,0.951
1215.74,309.0,0.951
1216.864,309.5,0.951
1217.973,310.0,0.952
1219.076,310.5,0.952
1220.188,311.0,0.952
1221.276,311.5,0.951
1222.376,312.0,0.951
1223.464,312.5,0.951
1224.549,313.0,0.951
1225.625,313.5,0.951
1226.701,314.0,0.95
1227.746,314.5,0.95
1228.827,315.0,0.95
1229.875,315.5,0.95
1230.98,316.0,0.95
1232.035,316.5,0.95
1233.069,317.0,0.95
1234.114,317.5,0.949
1235.187,318.0,0.949
1236.228,318.5,0.949
1237.289,319.0,0.949
1238.348,319.5,0.949
1239.386,320.0,0.949
1240.434,320.5,0.949
1241.483,321.0,0.949
1242.526,321.5,0.949
1243.56,322.0,0.949
1244.616,322.5,0.949
1245.637,323.0,0.949
1246.667,323.5,0.948
1247.712,324.0,0.948
1248.759,324.5,0.948
1249.797,325.0,0.948
1250.822,325.5,0.948
1251.828,326.0,0.948
1252.9,326.5,0.948
1253.956,327.0,0.948
1254.978,327.5,0.948
1256.03,328.0,0.948
1257.016,328.5,0.948
1258.043,329.0,0.948
1259.06,329.5,0.948
1260.121,330.0,0.948
1261.145,330.5,0.947
1262.169,331.0,0.947
1263.213,331.5,0.947
1264.257,332.0,0.947
1265.288,332.5,0.947
1266.301,333.0,0.947
1267.31,333.5,0.947
1268.349,334.0,0.947
1269.364,334.5,0.947
1270.381,335.0,0.946
1271.4,335.5,0.946
1272.439,336.0,0.946
1273.464,336.5,0.946
1274.472,337.0,0.946
1275.484,337.5,0.946
1276.506,338.0,0.946
1277.526,338.5,0.945
1278.553,339.0,0.945
1279.579,339.5,0.945
1280.588,340.0,0.945
1281.6,340.5,0.945
1282.634,341.0,0.945
1283.662,341.5,0.945
1284.671,342.0,0.945
1285.689,342.5,0.945
1286.697,343.0,0.944
1287.715,343.5,0.944
1288.743,344.0,0.944
1289.773,344.5,0.944
1290.774,345.0,0.944
1291.814,345.5,0.944
1292.806,346.0,0.944
1293.81,346.5,0.944
1294.83,347.0,0.944
1295.855,347.5,0.943
1296.87,348.0,0.943
1297.918,348.5,0.943
1298.899,349.0,0.943
1299.911,349.5,0.943
1300.91,350.0,0.943
1301.94,350.5,0.943
1302.952,351.0,0.943
1303.952,351.5,0.942
1304.979,352.0,0.942
1305.986,352.5,0.942
1307.018,353.0,0.942
1308.014,353.5,0.942
1309.024,354.0,0.942
1310.024,354.5,0.942
1311.029,355.0,0.942
1312.057,355.5,0.942
1313.079,356.0,0.941
1314.073,356.5,0.941
1315.084,357.0,0.941
1316.089,357.5,0.941
1317.1,358.0,0.941
1318.104,358.5,0.941
1319.104,359.0,0.941
1320.103,359.5,0.941
1321.114,360.0,0.941
1322.144,360.5,0.941
1323.134,361.0,0.941
1324.145,361.5,0.94
1325.157,362.0,0.94
1326.165,362.5,0.94
1327.145,363.0,0.94
1328.164,363.5,0.94
1329.181,364.0,0.94
1330.179,364.5,0.94
1331.193,365.0,0.94
1332.197,365.5,0.94
1333.196,366.0,0.94
1334.203,366.5,0.94
1335.2,367.0,0.94
1336.208,367.5,0.94
1337.231,368.0,0.94
1338.223,368.5,0.94
1339.21,369.0,0.939
1340.225,369.5,0.939
1341.226,370.0,0.939
1342.224,370.5,0.939
1343.235,371.0,0.939
1344.23,371.5,0.939
1345.222,372.0,0.939
1346.23,372.5,0.939
1347.247,373.0,0.939
1348.235,373.5,0.939
1349.242,374.0,0.939
1350.233,374.5,0.939
1351.247,375.0,0.939
1352.244,375.5,0.939
1353.242,376.0,0.939
1354.234,376.5,0.939
1355.208,377.0,0.939
1356.218,377.5,0.939
1357.237,378.0,0.939
1358.241,378.5,0.939
1359.226,379.0,0.939
1360.233,379.5,0.939
1361.229,380.0,0.939
1362.224,380.5,0.939
1363.196,381.0,0.939
1364.206,381.5,0.939
1365.201,382.0,0.939
1366.194,382.5,0.939
1367.208,383.0,0.939
1368.2,383.5,0.939
1369.188,384.0,0.939
1370.182,384.5,0.939
1371.193,385.0,0.939
1372.191,385.5,0.939
1373.167,386.0,0.939
1374.154,386.5,0.939
1375.17,387.0,0.939
1376.137,387.5,0.939
1377.129,388.0,0.939
1378.108,388.5,0.939
1379.113,389.0,0.939
1380.123,389.5,0.939
1381.112,390.0,0.939
1382.107,390.5,0.939
1383.099,391.0,0.939
1384.103,391.5,0.939
1385.08,392.0,0.939
1386.072,392.5,0.939
1387.04,393.0,0.939
1388.05,393.5,0.939
1389.021,394.0,0.939
1390.048,394.5,0.939
1391.012,395.0,0.939
1392.024,395.5,0.939
1393.02,396.0,0.939
1394.0,396.5,0.939
1395.004,397.0,0.939
1395.964,397.5,0.939
1396.951,398.0,0.939
1397.95,398.5,0.939
1398.948,399.0,0.939
1399.933,399.5,0.939
1400.923,400.0,0.939
1401.9,400.5,0.939
1402.893,401.0,0.939
1403.881,401.5,0.939
1404.856,402.0,0.939
1405.849,402.5,0.939
1406.845,403.0,0.939
1407.807,403.5,0.939
1408.8,404.0,0.939
1409.783,404.5,0.939
1410.764,405.0,0.939
1411.782,405.5,0.939
1412.759,406.0,0.939
1413.737,406.5,0.939
1414.72,407.0,0.939
1415.709,407.5,0.939
1416.691,408.0,0.939
1417.679,408.5,0.939
1418.672,409.0,0.939
1419.658,409.5,0.939
1420.635,410.0,0.939
1421.621,410.5,0.939
1422.591,411.0,0.939
1423.564,411.5,0.939
1424.552,412.0,0.939
1425.531,412.5,0.939
1426.521,413.0,0.939
1427.521,413.5,0.939
1428.513,414.0,0.939
1429.497,414.5,0.939
1430.472,415.0,0.939
1431.448,415.5,0.939
1432.435,416.0,0.939
1433.414,416.5,0.939
1434.386,417.0,0.939
1435.374,417.5,0.939
1436.354,418.0,0.939
1437.348,418.5,0.939
1438.336,419.0,0.938
1439.319,419.5,0.938
1440.287,420.0,0.938
1441.275,420.5,0.938
1442.258,421.0,0.938
1443.229,421.5,0.938
1444.228,422.0,0.938
1445.207,422.5,0.938
1446.171,423.0,0.938
1447.165,423.5,0.938
1448.146,424.0,0.938
1449.124,424.5,0.938
1450.12,425.0,0.938
1451.099,425.5,0.938
1452.066,426.0,0.938
1453.04,426.5,0.938
1454.031,427.0,0.938
1455.004,427.5,0.938
1455.96,428.0,0.938
1456.972,428.5,0.938
1457.938,429.0,0.938
1458.923,429.5,0.938
1459.906,430.0,0.938
1460.871,430.5,0.938
1461.854,431.0,0.938
1462.827,431.5,0.938
1463.82,432.0,0.938
1464.799,432.5,0.938
1465.772,433.0,0.938
1466.751,433.5,0.938
1467.723,434.0,0.938
1468.713,434.5,0.938
1469.682,435.0,0.938
1470.663,435.5,0.938
1471.643,436.0,0.938
1472.619,436.5,0.938
1473.598,437.0,0.938
1474.585,437.5,0.938
1475.556,438.0,0.938
1476.519,438.5,0.938
1477.494,439.0,0.938
1478.482,439.5,0.938
1479.473,440.0,0.938
1480.446,440.5,0.937
1481.412,441.0,0.937
1482.386,441.5,0.937
1483.367,442.0,0.937
1484.348,442.5,0.937
1485.311,443.0,0.937
1486.294,443.5,0.937
1487.283,444.0,0.937
1488.256,444.5,0.937
1489.221,445.0,0.937
1490.181,445.5,0.937
1491.172,446.0,0.937
1492.154,446.5,0.937
1493.109,447.0,0.937
1494.078,447.5,0.937
1495.053,448.0,0.937
1496.043,448.5,0.937
1497.023,449.0,0.937
1497.985,449.5,0.937
1498.944,450.0,0.936
1499.936,450.5,0.936
1500.9,451.0,0.936
1501.87,451.5,0.936
1502.854,452.0,0.936
1503.83,452.5,0.936
1504.804,453.0,0.936
1505.787,453.5,0.936
1506.761,454.0,0.936
1507.732,454.5,0.936
1508.702,455.0,0.936
1509.68,455.5,0.936
1510.646,456.0,0.936
1511.608,456.5,0.936
1512.58,457.0,0.935
1513.55,457.5,0.935
1514.521,458.0,0.935
1515.496,458.5,0.935
1516.47,459.0,0.935
1517.446,459.5,0.935
1518.418,460.0,0.935
1519.384,460.5,0.935
1520.356,461.0,0.935
1521.329,461.5,0.934
1522.3,462.0,0.934
1523.277,462.5,0.934
1524.268,463.0,0.934
1525.245,463.5,0.934
1526.212,464.0,0.934
1527.169,464.5,0.934
1528.141,465.0,0.933
1529.117,465.5,0.933
1530.067,466.0,0.933
1531.05,466.5,0.933
1532.014,467.0,0.933
1532.984,467.5,0.933
1533.969,468.0,0.933
1534.942,468.5,0.933
1535.907,469.0,0.932
1536.873,469.5,0.932
1537.846,470.0,0.932
1538.824,470.5,0.932
1539.79,471.0,0.932
1540.759,471.5,0.932
1541.734,472.0,0.932
1542.714,472.5,0.931
1543.677,473.0,0.931
1544.65,473.5,0.931
1545.622,474.0,0.931
1546.581,474.5,0.931
1547.553,475.0,0.931
1548.53,475.5,0.931
1549.507,476.0,0.93
1550.479,476.5,0.93
1551.449,477.0,0.93
1552.422,477.5,0.93
1553.395,478.0,0.93
1554.367,478.5,0.93
1555.329,479.0,0.93
1556.309,479.5,0.93
1557.268,480.0,0.93
1558.241,480.5,0.929
1559.204,481.0,0.929
1560.17,481.5,0.929
1561.145,482.0,0.929
1562.129,482.5,0.929
1563.117,483.0,0.929
1564.067,483.5,0.928
1565.055,484.0,0.928
1566.004,484.5,0.928
1566.996,485.0,0.928
1567.956,485.5,0.928
1568.923,486.0,0.927
1569.918,486.5,0.927
1570.866,487.0,0.927
1571.846,487.5,0.927
1572.826,488.0,0.927
1573.778,488.5,0.927
1574.752,489.0,0.927
1575.707,489.5,0.926
1576.675,490.0,0.926
1577.668,490.5,0.926
1578.64,491.0,0.926
1579.602,491.5,0.926
1580.569,492.0,0.926
1581.547,492.5,0.926
1582.52,493.0,0.925
1583.487,493.5,0.925
1584.467,494.0,0.925
1585.448,494.5,0.925
1586.412,495.0,0.925
1587.376,495.5,0.925
1588.352,496.0,0.925
1589.316,496.5,0.925
1590.299,497.0,0.924
1591.272,497.5,0.924
1592.242,498.0,0.924
1593.222,498.5,0.924
1594.192,499.0,0.924
1595.176,499.5,0.924
1596.145,500.0,0.924
1597.108,500.5,0.923
1598.062,501.0,0.923
1599.052,501.5,0.923
1600.021,502.0,0.923
1600.981,502.5,0.923
1601.955,503.0,0.923
1602.937,503.5,0.922
1603.903,504.0,0.922
1604.875,504.5,0.922
1605.858,505.0,0.922
1606.815,505.5,0.921
1607.804,506.0,0.921
1608.779,506.5,0.921
1609.758,507.0,0.921
1610.739,507.5,0.921
1611.692,508.0,0.92
1612.652,508.5,0.92
1613.619,509.0,0.92
1614.599,509.5,0.92
1615.577,510.0,0.92
1616.544,510.5,0.919
1617.513,511.0,0.919
1618.492,511.5,0.919
1619.479,512.0,0.919
1620.455,512.5,0.919
1621.422,513.0,0.919
1622.39,513.5,0.918
1623.363,514.0,0.918
1624.344,514.5,0.918
1625.306,515.0,0.918
1626.279,515.5,0.917
1627.25,516.0,0.917
1628.229,516.5,0.917
1629.197,517.0,0.917
1630.167,517.5,0.916
1631.157,518.0,0.916
1632.114,518.5,0.916
1633.08,519.0,0.915
1634.078,519.5,0.915
1635.046,520.0,0.915
1636.014,520.5,0.915
1636.986,521.0,0.914
1637.974,521.5,0.914
1638.949,522.0,0.914
1639.92,522.5,0.913
1640.893,523.0,0.913
1641.859,523.5,0.913
1642.837,524.0,0.912
1643.81,524.5,0.912
1644.788,525.0,0.912
1645.767,525.5,0.911
1646.737,526.0,0.911
1647.718,526.5,0.911
1648.696,527.0,0.91
1649.672,527.5,0.91
1650.652,528.0,0.91
1651.624,528.5,0.909
1652.6,529.0,0.909
1653.579,529.5,0.908
1654.543,530.0,0.908
1655.518,530.5,0.908
1656.514,531.0,0.907
1657.496,531.5,0.907
1658.461,532.0,0.907
1659.432,532.5,0.906
1660.415,533.0,0.906
1661.392,533.5,0.906
1662.361,534.0,0.905
1663.336,534.5,0.905
1664.322,535.0,0.904
1665.295,535.5,0.904
1666.28,536.0,0.903
1667.257,536.5,0.903
1668.223,537.0,0.902
1669.215,537.5,0.902
1670.194,538.0,0.901
1671.151,538.5,0.901
1672.139,539.0,0.9
1673.105,539.5,0.9
1674.08,540.0,0.899
1675.071,540.5,0.899
1676.01,541.0,0.898
1677.031,541.5,0.897
1677.998,542.0,0.897
1678.984,542.5,0.896
1679.957,543.0,0.896
1680.926,543.5,0.895
1681.885,544.0,0.895
1682.878,544.5,0.894
1683.857,545.0,0.893
1684.844,545.5,0.893
1685.829,546.0,0.892
1686.808,546.5,0.892
1687.779,547.0,0.891
1688.748,547.5,0.89
1689.718,548.0,0.89
1690.709,548.5,0.889
1691.689,549.0,0.888
1692.683,549.5,0.888
1693.653,550.0,0.887
1694.632,550.5,0.886
1695.624,551.0,0.886
1696.601,551.5,0.885
1697.576,552.0,0.884
1698.551,552.5,0.884
1699.525,553.0,0.883
1700.511,553.5,0.882
1701.496,554.0,0.882
1702.475,554.5,0.882
1703.456,555.0,0.881
1704.443,555.5,0.88
1705.421,556.0,0.879
1706.391,556.5,0.879
1707.376,557.0,0.878
1708.366,557.5,0.877
1709.352,558.0,0.876
1710.322,558.5,0.875
1711.303,559.0,0.874
1712.273,559.5,0.873
1713.263,560.0,0.873
1714.247,560.5,0.872
1715.219,561.0,0.871
1716.195,561.5,0.87
1717.167,562.0,0.87
1718.172,562.5,0.869
1719.174,563.0,0.868
1720.128,563.5,0.867
1721.138,564.0,0.866
1722.11,564.5,0.866
1723.08,565.0,0.865
1724.057,565.5,0.864
1725.036,566.0,0.863
1726.027,566.5,0.862
1727.0,567.0,0.861
1727.98,567.5,0.86
1728.963,568.0,0.859
1729.958,568.5,0.858
1730.932,569.0,0.857
1731.908,569.5,0.856
1732.901,570.0,0.856
1733.893,570.5,0.855
1734.885,571.0,0.854
1735.872,571.5,0.853
1736.845,572.0,0.852
1737.822,572.5,0.851
1738.808,573.0,0.85
1739.779,573.5,0.848
1740.769,574.0,0.847
1741.76,574.5,0.846
1742.74,575.0,0.845
1743.728,575.5,0.844
1744.713,576.0,0.843
1745.69,576.5,0.842
1746.685,577.0,0.841
1747.67,577.5,0.84
1748.645,578.0,0.839
1749.633,578.5,0.838
1750.621,579.0,0.836
1751.606,579.5,0.835
1752.587,580.0,0.834
1753.575,580.5,0.833
1754.565,581.0,0.832
1755.553,581.5,0.83
1756.548,582.0,0.829
1757.545,582.5,0.828
1758.528,583.0,0.827
1759.51,583.5,0.826
1760.496,584.0,0.825
1761.477,584.5,0.824
1762.461,585.0,0.822
1763.452,585.5,0.821
1764.442,586.0,0.82
1765.436,586.5,0.818
1766.417,587.0,0.817
1767.389,587.5,0.816
1768.369,588.0,0.814
1769.365,588.5,0.813
1770.365,589.0,0.812
1771.341,589.5,0.81
1772.32,590.0,0.809
1773.313,590.5,0.807
1774.318,591.0,0.806
1775.308,591.5,0.804
1776.293,592.0,0.803
1777.279,592.5,0.801
1778.261,593.0,0.799
1779.256,593.5,0.798
1780.24,594.0,0.797
1781.236,594.5,0.795
1782.22,595.0,0.794
1783.207,595.5,0.792
1784.206,596.0,0.79
1785.186,596.5,0.789
1786.191,597.0,0.787
1787.179,597.5,0.785
1788.171,598.0,0.784
1789.161,598.5,0.782
1790.144,599.0,0.78
1791.133,599.5,0.778
1792.135,600.0,0.776
1793.105,600.5,0.775
1794.093,601.0,0.773
1795.082,601.5,0.771
1796.083,602.0,0.769
1797.092,602.5,0.767
1798.054,603.0,0.765
1799.058,603.5,0.763
1800.06,604.0,0.761
1801.052,604.5,0.759
1802.024,605.0,0.757
1803.024,605.5,0.755
1804.008,606.0,0.753
1804.982,606.5,0.751
1806.004,607.0,0.749
1806.986,607.5,0.747
1807.982,608.0,0.745
1808.974,608.5,0.742
1809.955,609.0,0.74
1810.945,609.5,0.738
1811.957,610.0,0.736
1812.939,610.5,0.734
1813.931,611.0,0.731
1814.936,611.5,0.729
1815.918,612.0,0.727
1816.914,612.5,0.724
1817.903,613.0,0.722
1818.897,613.5,0.72
1819.894,614.0,0.717
1820.887,614.5,0.715
1821.872,615.0,0.713
1822.856,615.5,0.71
1823.863,616.0,0.708
1824.869,616.5,0.705
1825.861,617.0,0.703
1826.855,617.5,0.7
1827.844,618.0,0.698
1828.839,618.5,0.695
1829.831,619.0,0.693
1830.832,619.5,0.691
1831.825,620.0,0.688
1832.809,620.5,0.685
1833.808,621.0,0.683
1834.798,621.5,0.68
1835.787,622.0,0.678
1836.786,622.5,0.675
1837.777,623.0,0.672
1838.785,623.5,0.67
1839.783,624.0,0.667
1840.777,624.5,0.664
1841.771,625.0,0.662
1842.781,625.5,0.659
1843.77,626.0,0.656
1844.771,626.5,0.653
1845.761,627.0,0.651
1846.761,627.5,0.648
1847.759,628.0,0.645
1848.75,628.5,0.642
1849.756,629.0,0.639
1850.749,629.5,0.637
1851.74,630.0,0.634
1852.738,630.5,0.631
1853.737,631.0,0.628
1854.727,631.5,0.625
1855.728,632.0,0.622
1856.73,632.5,0.619
1857.72,633.0,0.616
1858.722,633.5,0.613
1859.711,634.0,0.61
1860.722,634.5,0.607
1861.734,635.0,0.604
1862.724,635.5,0.601
1863.729,636.0,0.598
1864.731,636.5,0.595
1865.731,637.0,0.592
1866.722,637.5,0.589
1867.709,638.0,0.586
1868.715,638.5,0.583
1869.705,639.0,0.58
1870.713,639.5,0.577
1871.707,640.0,0.574
1872.711,640.5,0.571
1873.72,641.0,0.567
1874.728,641.5,0.564
1875.72,642.0,0.561
1876.713,642.5,0.558
1877.712,643.0,0.555
1878.711,643.5,0.551
1879.722,644.0,0.548
1880.727,644.5,0.545
1881.725,645.0,0.542
1882.72,645.5,0.538
1883.722,646.0,0.535
1884.727,646.5,0.532
1885.725,647.0,0.528
1886.715,647.5,0.525
1887.715,648.0,0.521
1888.723,648.5,0.518
1889.726,649.0,0.514
1890.717,649.5,0.511
1891.732,650.0,0.507
1892.731,650.5,0.504
1893.735,651.0,0.5
1894.735,651.5,0.497
1895.734,652.0,0.493
1896.741,652.5,0.489
1897.752,653.0,0.485
1898.754,653.5,0.482
1899.757,654.0,0.478
1900.761,654.5,0.474
1901.765,655.0,0.47
1902.769,655.5,0.467
1903.768,656.0,0.463
1904.782,656.5,0.459
1905.796,657.0,0.455
1906.787,657.5,0.451
1907.795,658.0,0.447
1908.795,658.5,0.443
1909.799,659.0,0.439
1910.806,659.5,0.435
1911.819,660.0,0.431
1912.814,660.5,0.427
1913.806,661.0,0.422
1914.834,661.5,0.418
1915.825,662.0,0.414
1916.824,662.5,0.41
1917.841,663.0,0.406
1918.837,663.5,0.401
1919.846,664.0,0.397
1920.869,664.5,0.393
1921.877,665.0,0.388
1922.862,665.5,0.384
1923.872,666.0,0.38
1924.883,666.5,0.375
1925.895,667.0,0.37
1926.889,667.5,0.366
1927.897,668.0,0.362
1928.922,668.5,0.357
1929.917,669.0,0.352
1930.914,669.5,0.348
1931.923,670.0,0.344
1932.928,670.5,0.339
1933.928,671.0,0.335
1934.93,671.5,0.331
1935.955,672.0,0.326
1936.968,672.5,0.322
1937.94,673.0,0.318
1938.969,673.5,0.314
1939.974,674.0,0.31
1940.982,674.5,0.306
1941.972,675.0,0.302
1942.998,675.5,0.298
1943.988,676.0,0.294
1945.0,676.5,0.291
1946.0,677.0,0.287
1947.014,677.5,0.283
1948.018,678.0,0.28
1949.01,678.5,0.277
1950.014,679.0,0.273
1951.03,679.5,0.27
1952.026,680.0,0.267
1953.018,680.5,0.264
1954.023,681.0,0.262
1955.046,681.5,0.259
1956.054,682.0,0.256
1957.046,682.5,0.254
1958.037,683.0,0.252
1959.061,683.5,0.249
1960.051,684.0,0.247
1961.062,684.5,0.245
1962.054,685.0,0.243
1963.052,685.5,0.242
1964.05,686.0,0.24
1965.057,686.5,0.238
1966.066,687.0,0.237
1967.065,687.5,0.236
1968.059,688.0,0.234
1969.071,688.5,0.233
1970.088,689.0,0.232
1971.087,689.5,0.231
1972.1,690.0,0.23
1973.103,690.5,0.23
1974.107,691.0,0.229
1975.102,691.5,0.228
1976.106,692.0,0.227
1977.12,692.5,0.227
1978.124,693.0,0.226
1979.124,693.5,0.226
1980.141,694.0,0.225
1981.144,694.5,0.225
1982.143,695.0,0.224
1983.139,695.5,0.224
1984.161,696.0,0.223
1985.177,696.5,0.223
1986.184,697.0,0.223
1987.199,697.5,0.222
1988.2,698.0,0.222
1989.215,698.5,0.221
1990.216,699.0,0.221
1991.211,699.5,0.221
1992.222,700.0,0.22
1993.225,700.5,0.22
1994.235,701.0,0.22
1995.235,701.5,0.219
1996.249,702.0,0.219
1997.259,702.5,0.219
1998.264,703.0,0.218
1999.27,703.5,0.218
2000.277,704.0,0.218
2001.278,704.5,0.217
2002.282,705.0,0.217
2003.293,705.5,0.217
2004.303,706.0,0.217
2005.317,706.5,0.216
2006.31,707.0,0.216
2007.31,707.5,0.216
2008.329,708.0,0.215
2009.347,708.5,0.215
2010.348,709.0,0.215
2011.355,709.5,0.215
2012.355,710.0,0.214
2013.364,710.5,0.214
2014.383,711.0,0.214
2015.388,711.5,0.214
2016.393,712.0,0.213
2017.42,712.5,0.213
2018.427,713.0,0.213
2019.423,713.5,0.212
2020.436,714.0,0.212
2021.447,714.5,0.212
2022.455,715.0,0.212
2023.463,715.5,0.211
2024.474,716.0,0.211
2025.477,716.5,0.211
2026.478,717.0,0.21
2027.494,717.5,0.21
2028.505,718.0,0.209
2029.513,718.5,0.209
2030.521,719.0,0.209
2031.525,719.5,0.209
2032.535,720.0,0.208
2033.538,720.5,0.208
2034.544,721.0,0.208
2035.564,721.5,0.208
2036.574,722.0,0.207
2037.581,722.5,0.207
2038.587,723.0,0.207
2039.6,723.5,0.207
2040.612,724.0,0.206
2041.623,724.5,0.206
2042.621,725.0,0.206
2043.631,725.5,0.206
2044.636,726.0,0.205
2045.647,726.5,0.205
2046.651,727.0,0.205
2047.67,727.5,0.205
2048.675,728.0,0.204
2049.68,728.5,0.204
2050.704,729.0,0.204
2051.702,729.5,0.204
2052.717,730.0,0.204
2053.734,730.5,0.203
2054.744,731.0,0.203
2055.752,731.5,0.203
2056.765,732.0,0.202
2057.763,732.5,0.202
2058.768,733.0,0.202
2059.786,733.5,0.202
2060.803,734.0,0.201
2061.809,734.5,0.201
2062.818,735.0,0.201
2063.83,735.5,0.2
2064.846,736.0,0.2
2065.85,736.5,0.2
2066.866,737.0,0.2
2067.87,737.5,0.2
2068.884,738.0,0.199
2069.89,738.5,0.199
2070.895,739.0,0.199
2071.907,739.5,0.199
2072.921,740.0,0.199
2073.933,740.5,0.198
2074.943,741.0,0.198
2075.944,741.5,0.198
2076.957,742.0,0.198
2077.962,742.5,0.197
2078.992,743.0,0.197
2080.0,743.5,0.197
2080.988,744.0,0.197
2082.004,744.5,0.197
2083.012,745.0,0.196
2084.033,745.5,0.196
2085.054,746.0,0.196
2086.058,746.5,0.196
2087.061,747.0,0.196
2088.079,747.5,0.195
2089.087,748.0,0.195
2090.102,748.5,0.195
2091.107,749.0,0.195
2092.129,749.5,0.195
2093.135,750.0,0.194
2094.147,750.5,0.194
2095.165,751.0,0.194
2096.185,751.5,0.194
2097.195,752.0,0.194
2098.19,752.5,0.193
2099.192,753.0,0.193
2100.202,753.5,0.193
2101.212,754.0,0.193
2102.234,754.5,0.193
2103.25,755.0,0.192
2104.251,755.5,0.192
2105.271,756.0,0.192
2106.286,756.5,0.192
2107.29,757.0,0.192
2108.298,757.5,0.192
2109.318,758.0,0.192
2110.325,758.5,0.191
2111.331,759.0,0.191
2112.332,759.5,0.191
2113.341,760.0,0.191
2114.348,760.5,0.191
2115.363,761.0,0.191
2116.38,761.5,0.19
2117.391,762.0,0.19
2118.396,762.5,0.19
2119.416,763.0,0.19
2120.431,763.5,0.19
2121.429,764.0,0.19
2122.44,764.5,0.189
2123.454,765.0,0.189
2124.464,765.5,0.189
2125.479,766.0,0.189
2126.486,766.5,0.189
2127.495,767.0,0.189
2128.501,767.5,0.188
2129.522,768.0,0.188
2130.535,768.5,0.188
2131.545,769.0,0.188
2132.554,769.5,0.188
2133.561,770.0,0.187
2134.566,770.5,0.187
2135.561,771.0,0.187
2136.575,771.5,0.187
2137.59,772.0,0.187
2138.6,772.5,0.187
2139.604,773.0,0.187
2140.618,773.5,0.186
2141.628,774.0,0.186
2142.643,774.5,0.186
2143.66,775.0,0.186
2144.655,775.5,0.186
2145.666,776.0,0.186
2146.688,776.5,0.186
2147.698,777.0,0.186
2148.71,777.5,0.185
2149.714,778.0,0.185
2150.721,778.5,0.185
2151.717,779.0,0.185
2152.73,779.5,0.185
2153.745,780.0,0.185
2154.762,780.5,0.185
2155.768,781.0,0.185
2156.77,781.5,0.185
2157.779,782.0,0.185
2158.782,782.5,0.184
2159.79,783.0,0.184
2160.805,783.5,0.184
2161.828,784.0,0.184
2162.827,784.5,0.184
2163.831,785.0,0.184
2164.844,785.5,0.184
2165.865,786.0,0.184
2166.868,786.5,0.184
2167.866,787.0,0.183
2168.869,787.5,0.183
2169.879,788.0,0.183
2170.891,788.5,0.183
2171.905,789.0,0.183
2172.919,789.5,0.183
2173.929,790.0,0.183
2174.941,790.5,0.182
2175.944,791.0,0.182
2176.942,791.5,0.182
2177.955,792.0,0.182
2178.974,792.5,0.182
2179.978,793.0,0.182
2180.994,793.5,0.182
2182.002,794.0,0.181
2183.028,794.5,0.181
2184.024,795.0,0.181
2185.02,795.5,0.181
2186.034,796.0,0.181
2187.041,796.5,0.181
2188.029,797.0,0.181
2189.057,797.5,0.181
2190.068,798.0,0.181
2191.07,798.5,0.181
2192.077,799.0,0.181
2193.089,799.5,0.181
2194.096,800.0,0.181
2195.1,800.5,0.18
2196.104,801.0,0.18
2197.122,801.5,0.18
2198.126,802.0,0.18
2199.151,802.5,0.18
2200.156,803.0,0.18
2201.158,803.5,0.18
2202.16,804.0,0.18
2203.174,804.5,0.18
2204.197,805.0,0.179
2205.208,805.5,0.179
2206.199,806.0,0.179
2207.201,806.5,0.179
2208.202,807.0,0.179
2209.224,807.5,0.179
2210.246,808.0,0.179
2211.248,808.5,0.179
2212.248,809.0,0.179
2213.26,809.5,0.179
2214.271,810.0,0.178
2215.276,810.5,0.178
2216.286,811.0,0.178
2217.282,811.5,0.178
2218.305,812.0,0.178
2219.321,812.5,0.178
2220.32,813.0,0.178
2221.33,813.5,0.178
2222.348,814.0,0.178
2223.347,814.5,0.178
2224.356,815.0,0.178
2225.365,815.5,0.177
2226.37,816.0,0.177
2227.372,816.5,0.177
2228.364,817.0,0.177
2229.376,817.5,0.177
2230.394,818.0,0.177
2231.405,818.5,0.177
2232.409,819.0,0.177
2233.415,819.5,0.177
2234.431,820.0,0.177
2235.443,820.5,0.177
2236.451,821.0,0.176
2237.453,821.5,0.176
2238.458,822.0,0.176
2239.471,822.5,0.176
2240.469,823.0,0.176
2241.476,823.5,0.176
2242.494,824.0,0.176
2243.502,824.5,0.176
2244.505,825.0,0.176
2245.513,825.5,0.176
2246.524,826.0,0.176
2247.53,826.5,0.175
2248.538,827.0,0.175
2249.544,827.5,0.175
2250.563,828.0,0.175
2251.564,828.5,0.175
2252.565,829.0,0.175
2253.577,829.5,0.175
2254.591,830.0,0.175
2255.602,830.5,0.175
2256.61,831.0,0.175
2257.618,831.5,0.175
2258.628,832.0,0.174
2259.642,832.5,0.174
2260.633,833.0,0.174
2261.633,833.5,0.174
2262.648,834.0,0.174
2263.65,834.5,0.174
2264.651,835.0,0.174
2265.669,835.5,0.174
2266.67,836.0,0.174
2267.681,836.5,0.174
2268.699,837.0,0.174
2269.707,837.5,0.173
2270.707,838.0,0.173
2271.726,838.5,0.173
2272.731,839.0,0.173
2273.731,839.5,0.173
2274.755,840.0,0.173
2275.767,840.5,0.173
2276.782,841.0,0.173
2277.786,841.5,0.173
2278.786,842.0,0.173
2279.791,842.5,0.173
2280.816,843.0,0.173
2281.83,843.5,0.173
2282.825,844.0,0.173
2283.827,844.5,0.173
2284.838,845.0,0.173
2285.845,845.5,0.172
2286.839,846.0,0.172
2287.852,846.5,0.172
2288.868,847.0,0.172
2289.879,847.5,0.172
2290.884,848.0,0.172
2291.886,848.5,0.172
2292.895,849.0,0.172
2293.9,849.5,0.172
2294.916,850.0,0.172
2295.922,850.5,0.172
2296.909,851.0,0.172
2297.936,851.5,0.171
2298.932,852.0,0.171
2299.957,852.5,0.171
2300.952,853.0,0.171
2301.981,853.5,0.171
2302.955,854.0,0.171
2303.981,854.5,0.171
2304.984,855.0,0.171
2305.98,855.5,0.171
2306.992,856.0,0.171
2307.998,856.5,0.171
2309.008,857.0,0.17
2310.024,857.5,0.17
2311.018,858.0,0.17
2312.04,858.5,0.17
2313.044,859.0,0.17
2314.04,859.5,0.17
2315.053,860.0,0.17
2316.062,860.5,0.17
2317.066,861.0,0.17
2318.066,861.5,0.17
2319.07,862.0,0.17
2320.075,862.5,0.17
2321.088,863.0,0.17
2322.11,863.5,0.17
2323.115,864.0,0.17
2324.122,864.5,0.169
2325.124,865.0,0.169
2326.137,865.5,0.169
2327.133,866.0,0.169
2328.13,866.5,0.169
2329.146,867.0,0.169
2330.16,867.5,0.169
2331.173,868.0,0.169
2332.179,868.5,0.169
2333.185,869.0,0.169
2334.181,869.5,0.169
2335.186,870.0,0.169
2336.19,870.5,0.168
2337.209,871.0,0.168
2338.218,871.5,0.168
2339.218,872.0,0.168
2340.226,872.5,0.168
2341.229,873.0,0.168
2342.239,873.5,0.168
2343.237,874.0,0.168
2344.246,874.5,0.168
2345.256,875.0,0.168
2346.256,875.5,0.168
2347.272,876.0,0.168
2348.269,876.5,0.168
2349.281,877.0,0.168
2350.293,877.5,0.168
2351.296,878.0,0.168
2352.305,878.5,0.168
2353.308,879.0,0.167
2354.316,879.5,0.167
2355.32,880.0,0.167
2356.34,880.5,0.167
2357.356,881.0,0.167
2358.347,881.5,0.167
2359.351,882.0,0.167
2360.354,882.5,0.167
2361.357,883.0,0.167
2362.358,883.5,0.167
2363.368,884.0,0.167
2364.38,884.5,0.167
2365.389,885.0,0.167
2366.399,885.5,0.167
2367.391,886.0,0.166
2368.388,886.5,0.166
2369.402,887.0,0.166
2370.4,887.5,0.166
2371.404,888.0,0.166
2372.41,888.5,0.166
2373.417,889.0,0.166
2374.429,889.5,0.166
2375.435,890.0,0.166
2376.441,890.5,0.166
2377.461,891.0,0.166
2378.467,891.5,0.166
2379.463,892.0,0.166
2380.473,892.5,0.165
2381.481,893.0,0.165
2382.48,893.5,0.165
2383.481,894.0,0.165
2384.485,894.5,0.165
2385.495,895.0,0.165
2386.499,895.5,0.165
2387.504,896.0,0.165
2388.507,896.5,0.165
2389.515,897.0,0.165
2390.538,897.5,0.165
2391.532,898.0,0.165
2392.525,898.5,0.165
2393.548,899.0,0.165
2394.548,899.5,0.165
2395.546,900.0,0.165
2396.558,900.5,0.165
2397.559,901.0,0.165
2398.557,901.5,0.164
2399.569,902.0,0.164
2400.578,902.5,0.164
2401.575,903.0,0.164
2402.572,903.5,0.164
2403.586,904.0,0.164
2404.595,904.5,0.164
2405.604,905.0,0.164
2406.606,905.5,0.164
2407.609,906.0,0.164
2408.613,906.5,0.164
2409.623,907.0,0.164
2410.629,907.5,0.164
2411.631,908.0,0.163
2412.635,908.5,0.163
2413.641,909.0,0.163
2414.647,909.5,0.163
2415.655,910.0,0.163
2416.655,910.5,0.163
2417.669,911.0,0.163
2418.688,911.5,0.163
2419.679,912.0,0.163
2420.684,912.5,0.163
2421.683,913.0,0.163
2422.688,913.5,0.163
2423.695,914.0,0.163
2424.693,914.5,0.163
2425.698,915.0,0.163
2426.697,915.5,0.163
2427.706,916.0,0.163
2428.711,916.5,0.162
2429.706,917.0,0.162
2430.72,917.5,0.162
2431.733,918.0,0.162
2432.73,918.5,0.162
2433.729,919.0,0.162
2434.734,919.5,0.162
2435.742,920.0,0.162
2436.747,920.5,0.162
2437.757,921.0,0.162
2438.744,921.5,0.162
2439.75,922.0,0.162
2440.777,922.5,0.162
2441.775,923.0,0.162
2442.775,923.5,0.162
2443.778,924.0,0.162
2444.778,924.5,0.162
2445.78,925.0,0.162
2446.794,925.5,0.162
2447.798,926.0,0.162
2448.808,926.5,0.162
2449.817,927.0,0.162
2450.818,927.5,0.161
2451.828,928.0,0.161
2452.822,928.5,0.161
2453.822,929.0,0.161
2454.82,929.5,0.161
2455.828,930.0,0.161
2456.847,930.5,0.161
2457.843,931.0,0.161
2458.856,931.5,0.161
2459.856,932.0,0.161
2460.853,932.5,0.161
2461.864,933.0,0.161
2462.878,933.5,0.161
2463.864,934.0,0.161
2464.88,934.5,0.161
2465.884,935.0,0.161
2466.88,935.5,0.161
2467.891,936.0,0.161
2468.901,936.5,0.161
2469.911,937.0,0.161
2470.908,937.5,0.161
2471.904,938.0,0.161
2472.9,938.5,0.16
2473.928,939.0,0.16
2474.917,939.5,0.16
2475.933,940.0,0.16
2476.94,940.5,0.16
2477.942,941.0,0.16
2478.948,941.5,0.16
2479.95,942.0,0.16
2480.965,942.5,0.16
2481.988,943.0,0.16
2482.982,943.5,0.16
2483.99,944.0,0.16
2484.992,944.5,0.16
2485.996,945.0,0.16
2486.99,945.5,0.16
2488.01,946.0,0.16
2488.996,946.5,0.16
2490.012,947.0,0.159
2491.002,947.5,0.159
2492.002,948.0,0.159
2493.022,948.5,0.159
2494.014,949.0,0.159
2495.016,949.5,0.159
2496.036,950.0,0.159
2497.033,950.5,0.159
2498.048,951.0,0.159
2499.049,951.5,0.159
2500.064,952.0,0.159
2501.043,952.5,0.159
2502.058,953.0,0.159
2503.058,953.5,0.159
2504.067,954.0,0.159
2505.076,954.5,0.159
2506.078,955.0,0.159
2507.08,955.5,0.159
2508.082,956.0,0.159
2509.081,956.5,0.159
2510.091,957.0,0.159
2511.098,957.5,0.159
2512.086,958.0,0.159
2513.103,958.5,0.159
2514.116,959.0,0.159
2515.112,959.5,0.159
2516.114,960.0,0.159
2517.099,960.5,0.159
2518.114,961.0,0.159
2519.127,961.5,0.159
2520.12,962.0,0.159
2521.12,962.5,0.159
2522.126,963.0,0.159
2523.135,963.5,0.159
2524.134,964.0,0.159
2525.144,964.5,0.159
2526.147,965.0,0.158
2527.162,965.5,0.158
2528.15,966.0,0.158
2529.152,966.5,0.158
2530.173,967.0,0.158
2531.167,967.5,0.158
2532.172,968.0,0.158
2533.167,968.5,0.158
2534.178,969.0,0.158
2535.172,969.5,0.158
2536.188,970.0,0.158
2537.177,970.5,0.158
2538.178,971.0,0.158
2539.196,971.5,0.158
2540.2,972.0,0.158
2541.197,972.5,0.158
2542.208,973.0,0.158
2543.212,973.5,0.158
2544.22,974.0,0.158
2545.221,974.5,0.158
2546.224,975.0,0.158
2547.227,975.5,0.158
2548.242,976.0,0.158
2549.231,976.5,0.158
2550.244,977.0,0.158
2551.249,977.5,0.158
2552.243,978.0,0.158
2553.244,978.5,0.158
2554.262,979.0,0.158
2555.271,979.5,0.158
2556.262,980.0,0.158
2557.264,980.5,0.158
2558.281,981.0,0.157
2559.283,981.5,0.157
2560.282,982.0,0.157
2561.281,982.5,0.157
2562.291,983.0,0.157
2563.296,983.5,0.157
2564.292,984.0,0.157
2565.299,984.5,0.157
2566.31,985.0,0.157
2567.311,985.5,0.157
2568.294,986.0,0.157
2569.29,986.5,0.157
2570.301,987.0,0.157
2571.313,987.5,0.157
2572.306,988.0,0.157
2573.315,988.5,0.157
2574.328,989.0,0.157
2575.315,989.5,0.157
2576.32,990.0,0.157
2577.332,990.5,0.157
2578.327,991.0,0.157
2579.324,991.5,0.156
2580.339,992.0,0.156
2581.335,992.5,0.156
2582.329,993.0,0.156
2583.342,993.5,0.156
2584.353,994.0,0.156
2585.343,994.5,0.156
2586.333,995.0,0.156
2587.333,995.5,0.156
2588.337,996.0,0.156
2589.343,996.5,0.156
2590.349,997.0,0.156
2591.351,997.5,0.156
2592.348,998.0,0.156
2593.345,998.5,0.156
2594.351,999.0,0.156
2595.361,999.5,0.156
2596.363,1000.0,0.156
2597.361,1000.5,0.156
2598.366,1001.0,0.156
2599.37,1001.5,0.156
2600.363,1002.0,0.156
2601.362,1002.5,0.156
2602.37,1003.0,0.156
2603.375,1003.5,0.156
2604.369,1004.0,0.156
2605.373,1004.5,0.156
2606.378,1005.0,0.156
2607.377,1005.5,0.156
2608.388,1006.0,0.156
2609.385,1006.5,0.156
2610.376,1007.0,0.156
2611.383,1007.5,0.156
2612.38,1008.0,0.156
2613.383,1008.5,0.156
2614.39,1009.0,0.156
2615.394,1009.5,0.156
2616.392,1010.0,0.156
2617.4,1010.5,0.156
2618.4,1011.0,0.156
2619.405,1011.5,0.156
2620.406,1012.0,0.156
2621.406,1012.5,0.156
2622.416,1013.0,0.156
2623.416,1013.5,0.156
2624.411,1014.0,0.156
2625.408,1014.5,0.156
2626.404,1015.0,0.156
2627.412,1015.5,0.156
2628.413,1016.0,0.156
2629.398,1016.5,0.156
2630.391,1017.0,0.156
2631.397,1017.5,0.156
2632.391,1018.0,0.156
2633.393,1018.5,0.156
2634.396,1019.0,0.155
2635.391,1019.5,0.155
2636.392,1020.0,0.155
2637.397,1020.5,0.155
2638.402,1021.0,0.155
2639.398,1021.5,0.155
2640.386,1022.0,0.155
2641.385,1022.5,0.155
2642.385,1023.0,0.155
2643.392,1023.5,0.155
2644.394,1024.0,0.155
2645.39,1024.5,0.155
2646.383,1025.0,0.155
2647.381,1025.5,0.155
2648.374,1026.0,0.155
2649.378,1026.5,0.155
2650.376,1027.0,0.155
2651.385,1027.5,0.155
2652.39,1028.0,0.155
2653.385,1028.5,0.155
2654.384,1029.0,0.155
2655.392,1029.5,0.155
2656.392,1030.0,0.155
2657.385,1030.5,0.154
2658.384,1031.0,0.154
2659.396,1031.5,0.154
2660.39,1032.0,0.154
2661.376,1032.5,0.154
2662.387,1033.0,0.154
2663.397,1033.5,0.154
2664.394,1034.0,0.154
2665.389,1034.5,0.154
2666.392,1035.0,0.154
2667.401,1035.5,0.154
2668.404,1036.0,0.154
2669.398,1036.5,0.154
2670.393,1037.0,0.154
2671.393,1037.5,0.154
2672.4,1038.0,0.154
2673.405,1038.5,0.154
2674.405,1039.0,0.154
2675.414,1039.5,0.154
2676.414,1040.0,0.154
2677.406,1040.5,0.154
2678.396,1041.0,0.154
2679.399,1041.5,0.154
2680.404,1042.0,0.154
2681.399,1042.5,0.154
2682.402,1043.0,0.154
2683.406,1043.5,0.154
2684.413,1044.0,0.154
2685.414,1044.5,0.154
2686.42,1045.0,0.154
2687.416,1045.5,0.154
2688.41,1046.0,0.154
2689.416,1046.5,0.154
2690.417,1047.0,0.154
2691.414,1047.5,0.154
2692.41,1048.0,0.154
2693.411,1048.5,0.154
2694.421,1049.0,0.154
2695.416,1049.5,0.154
2696.415,1050.0,0.154
2697.427,1050.5,0.154
2698.427,1051.0,0.154
2699.422,1051.5,0.154
2700.425,1052.0,0.153
2701.424,1052.5,0.153
2702.421,1053.0,0.153
2703.426,1053.5,0.153
2704.423,1054.0,0.153
2705.421,1054.5,0.153
2706.423,1055.0,0.153
2707.421,1055.5,0.153
2708.423,1056.0,0.153
2709.433,1056.5,0.153
2710.433,1057.0,0.153
2711.436,1057.5,0.153
2712.445,1058.0,0.153
2713.441,1058.5,0.153
2714.434,1059.0,0.153
2715.433,1059.5,0.153
2716.437,1060.0,0.153
2717.438,1060.5,0.153
2718.441,1061.0,0.153
2719.376,1061.5,0.153
2720.542,1062.0,0.153
2722.476,1062.5,0.153
2723.965,1063.0,0.152
2725.444,1063.5,0.152
2727.016,1064.0,0.152
2728.691,1064.5,0.152
2730.513,1065.0,0.152
2732.494,1065.5,0.152
2734.611,1066.0,0.152
2740.0,1067.099,0.152
2750.0,1068.588,0.152
2760.0,1069.605,0.152
2770.0,1070.302,0.152
2780.0,1070.79,0.152
2790.0,1071.149,0.152
2800.0,1071.396,0.152
2810.0,1071.593,0.151
2820.0,1071.744,0.151
2830.0,1071.86,0.151
2840.0,1071.954,0.151
2850.0,1072.035,0.151
2860.0,1072.101,0.151
2870.0,1072.164,0.151
2880.0,1072.216,0.151
2890.0,1072.257,0.151
2900.0,1072.302,0.15
2910.0,1072.333,0.15
2920.0,1072.36,0.15
2930.0,1072.391,0.15
2940.0,1072.406,0.15
2950.0,1072.422,0.15
2960.0,1072.448,0.15
2970.0,1072.47,0.15
2980.0,1072.48,0.15
2990.0,1072.489,0.15
3000.0,1072.503,0.15
3010.0,1072.51,0.149
3020.0,1072.522,0.149
3030.0,1072.528,0.149
3040.0,1072.535,0.149
