Time (s),Temperature (K),Mass (mg)
0.0,304.972,2.02
1.0,304.971,2.019
6.0,304.94,2.018
10.0,304.926,2.017
14.0,304.902,2.016
18.0,304.888,2.015
22.0,304.883,2.014
26.0,304.861,2.013
31.0,304.838,2.012
36.0,304.835,2.011
41.0,304.811,2.01
46.0,304.801,2.009
51.0,304.782,2.008
56.0,304.767,2.007
62.0,304.777,2.006
67.0,304.732,2.005
73.0,304.729,2.004
79.0,304.708,2.003
85.0,304.706,2.002
92.0,304.698,2.001
99.0,304.672,2.0
107.0,304.669,1.999
115.0,304.655,1.998
123.0,304.646,1.997
131.0,304.62,1.996
140.0,304.615,1.995
150.0,304.59,1.994
159.0,304.582,1.993
170.0,304.58,1.992
183.0,304.562,1.991
193.0,304.549,1.99
205.0,304.553,1.989
218.0,304.538,1.988
232.0,304.507,1.987
246.0,304.515,1.986
264.0,304.49,1.985
279.0,304.482,1.984
295.0,304.459,1.983
314.0,304.463,1.982
338.0,304.462,1.981
360.0,304.455,1.98
388.0,304.444,1.979
415.0,304.446,1.978
446.0,304.443,1.977
480.0,304.418,1.976
519.0,304.427,1.975
567.0,304.409,1.974
623.0,304.421,1.973
683.0,304.449,1.972
769.0,304.432,1.971
847.0,304.445,1.97
966.0,304.428,1.969
1180.0,304.443,1.968
1204.08,305.0,1.967
1205.319,305.5,1.966
1206.33,306.0,1.966
1207.157,306.5,1.966
1207.94,307.0,1.966
1208.775,307.5,1.966
1209.598,308.0,1.966
1210.364,308.5,1.966
1211.079,309.0,1.966
1211.771,309.5,1.967
1212.445,310.0,1.967
1213.105,310.5,1.968
1213.742,311.0,1.968
1214.386,311.5,1.968
1215.031,312.0,1.969
1215.647,312.5,1.97
1216.269,313.0,1.97
1216.901,313.5,1.97
1217.505,314.0,1.97
1218.102,314.5,1.97
1218.698,315.0,1.97
1219.299,315.5,1.97
1219.905,316.0,1.97
1220.503,316.5,1.97
1221.098,317.0,1.97
1221.69,317.5,1.97
1222.282,318.0,1.97
1222.875,318.5,1.97
1223.476,319.0,1.97
1224.077,319.5,1.97
1224.669,320.0,1.97
1225.263,320.5,1.97
1225.857,321.0,1.97
1226.449,321.5,1.97
1227.04,322.0,1.969
1227.634,322.5,1.969
1228.229,323.0,1.969
1228.826,323.5,1.969
1229.424,324.0,1.969
1230.022,324.5,1.969
1230.608,325.0,1.968
1231.198,325.5,1.968
1231.798,326.0,1.968
1232.393,326.5,1.968
1232.985,327.0,1.968
1233.577,327.5,1.967
1234.172,328.0,1.967
1234.773,328.5,1.967
1235.369,329.0,1.967
1235.962,329.5,1.967
1236.556,330.0,1.966
1237.15,330.5,1.966
1237.74,331.0,1.966
1238.331,331.5,1.966
1238.923,332.0,1.966
1239.522,332.5,1.966
1240.121,333.0,1.966
1240.718,333.5,1.965
1241.318,334.0,1.965
1241.92,334.5,1.965
1242.514,335.0,1.965
1243.11,335.5,1.965
1243.719,336.0,1.965
1244.318,336.5,1.965
1244.91,337.0,1.964
1245.504,337.5,1.964
1246.098,338.0,1.964
1246.692,338.5,1.964
1247.285,339.0,1.964
1247.876,339.5,1.964
1248.475,340.0,1.964
1249.077,340.5,1.963
1249.677,341.0,1.963
1250.276,341.5,1.963
1250.874,342.0,1.963
1251.474,342.5,1.963
1252.074,343.0,1.962
1252.682,343.5,1.962
1253.287,344.0,1.962
1253.886,344.5,1.962
1254.482,345.0,1.962
1255.078,345.5,1.961
1255.681,346.0,1.961
1256.281,346.5,1.961
1256.878,347.0,1.961
1257.487,347.5,1.961
1258.095,348.0,1.96
1258.687,348.5,1.96
1259.282,349.0,1.96
1259.878,349.5,1.96
1260.48,350.0,1.96
1261.081,350.5,1.959
1261.67,351.0,1.959
1262.268,351.5,1.959
1262.876,352.0,1.958
1263.474,352.5,1.958
1264.071,353.0,1.958
1264.672,353.5,1.957
1265.274,354.0,1.957
1265.877,354.5,1.957
1266.477,355.0,1.957
1267.077,355.5,1.957
1267.675,356.0,1.956
1268.275,356.5,1.956
1268.877,357.0,1.956
1269.485,357.5,1.956
1270.094,358.0,1.955
1270.696,358.5,1.955
1271.297,359.0,1.955
1271.896,359.5,1.954
1272.493,360.0,1.954
1273.089,360.5,1.954
1273.681,361.0,1.954
1274.278,361.5,1.954
1274.88,362.0,1.953
1275.478,362.5,1.953
1276.075,363.0,1.953
1276.674,363.5,1.952
1277.276,364.0,1.952
1277.882,364.5,1.952
1278.485,365.0,1.952
1279.087,365.5,1.952
1279.69,366.0,1.951
1280.29,366.5,1.951
1280.886,367.0,1.951
1281.486,367.5,1.951
1282.087,368.0,1.951
1282.69,368.5,1.95
1283.286,369.0,1.95
1283.875,369.5,1.95
1284.476,370.0,1.95
1285.079,370.5,1.95
1285.676,371.0,1.949
1286.276,371.5,1.949
1286.878,372.0,1.949
1287.473,372.5,1.949
1288.068,373.0,1.949
1288.679,373.5,1.948
1289.286,374.0,1.948
1289.889,374.5,1.948
1290.482,375.0,1.948
1291.072,375.5,1.948
1291.665,376.0,1.948
1292.265,376.5,1.948
1292.873,377.0,1.947
1293.464,377.5,1.947
1294.051,378.0,1.947
1294.663,378.5,1.947
1295.271,379.0,1.947
1295.872,379.5,1.947
1296.459,380.0,1.947
1297.044,380.5,1.947
1297.652,381.0,1.946
1298.255,381.5,1.946
1298.851,382.0,1.946
1299.45,382.5,1.946
1300.051,383.0,1.946
1300.656,383.5,1.946
1301.255,384.0,1.946
1301.844,384.5,1.946
1302.439,385.0,1.946
1303.035,385.5,1.946
1303.63,386.0,1.945
1304.226,386.5,1.945
1304.825,387.0,1.945
1305.421,387.5,1.945
1306.017,388.0,1.945
1306.617,388.5,1.945
1307.216,389.0,1.945
1307.812,389.5,1.945
1308.41,390.0,1.945
1309.008,390.5,1.945
1309.61,391.0,1.945
1310.21,391.5,1.945
1310.807,392.0,1.945
1311.404,392.5,1.945
1312.001,393.0,1.945
1312.606,393.5,1.945
1313.206,394.0,1.945
1313.798,394.5,1.945
1314.396,395.0,1.945
1314.998,395.5,1.945
1315.591,396.0,1.945
1316.187,396.5,1.945
1316.788,397.0,1.945
1317.383,397.5,1.945
1317.975,398.0,1.944
1318.57,398.5,1.944
1319.164,399.0,1.944
1319.758,399.5,1.944
1320.356,400.0,1.944
1320.957,400.5,1.944
1321.554,401.0,1.944
1322.151,401.5,1.944
1322.744,402.0,1.944
1323.338,402.5,1.944
1323.934,403.0,1.944
1324.53,403.5,1.944
1325.126,404.0,1.944
1325.722,404.5,1.944
1326.313,405.0,1.944
1326.899,405.5,1.944
1327.5,406.0,1.944
1328.103,406.5,1.944
1328.703,407.0,1.944
1329.291,407.5,1.944
1329.869,408.0,1.944
1330.47,408.5,1.944
1331.076,409.0,1.944
1331.666,409.5,1.944
1332.26,410.0,1.944
1332.86,410.5,1.944
1333.449,411.0,1.944
1334.036,411.5,1.944
1334.632,412.0,1.944
1335.224,412.5,1.944
1335.808,413.0,1.944
1336.405,413.5,1.944
1337.007,414.0,1.944
1337.603,414.5,1.944
1338.196,415.0,1.944
1338.782,415.5,1.944
1339.37,416.0,1.944
1339.96,416.5,1.944
1340.557,417.0,1.944
1341.153,417.5,1.944
1341.742,418.0,1.944
1342.332,418.5,1.944
1342.922,419.0,1.944
1343.517,419.5,1.944
1344.113,420.0,1.944
1344.706,420.5,1.944
1345.3,421.0,1.944
1345.895,421.5,1.944
1346.498,422.0,1.944
1347.098,422.5,1.944
1347.679,423.0,1.944
1348.267,423.5,1.944
1348.863,424.0,1.944
1349.451,424.5,1.944
1350.037,425.0,1.943
1350.631,425.5,1.943
1351.226,426.0,1.943
1351.821,426.5,1.943
1352.409,427.0,1.943
1352.994,427.5,1.943
1353.582,428.0,1.943
1354.173,428.5,1.943
1354.773,429.0,1.943
1355.365,429.5,1.943
1355.952,430.0,1.943
1356.537,430.5,1.943
1357.125,431.0,1.943
1357.723,431.5,1.943
1358.315,432.0,1.943
1358.901,432.5,1.943
1359.491,433.0,1.943
1360.082,433.5,1.943
1360.673,434.0,1.943
1361.263,434.5,1.943
1361.852,435.0,1.943
1362.438,435.5,1.943
1363.025,436.0,1.943
1363.616,436.5,1.943
1364.207,437.0,1.943
1364.799,437.5,1.943
1365.396,438.0,1.943
1365.995,438.5,1.943
1366.577,439.0,1.942
1367.161,439.5,1.942
1367.75,440.0,1.942
1368.339,440.5,1.942
1368.928,441.0,1.942
1369.518,441.5,1.942
1370.108,442.0,1.942
1370.702,442.5,1.942
1371.29,443.0,1.942
1371.872,443.5,1.942
1372.467,444.0,1.942
1373.064,444.5,1.942
1373.646,445.0,1.942
1374.228,445.5,1.942
1374.811,446.0,1.942
1375.4,446.5,1.942
1375.993,447.0,1.941
1376.578,447.5,1.941
1377.167,448.0,1.941
1377.764,448.5,1.941
1378.348,449.0,1.941
1378.923,449.5,1.941
1379.514,450.0,1.941
1380.105,450.5,1.941
1380.685,451.0,1.941
1381.271,451.5,1.941
1381.862,452.0,1.941
1382.448,452.5,1.941
1383.033,453.0,1.94
1383.623,453.5,1.94
1384.21,454.0,1.94
1384.792,454.5,1.94
1385.376,455.0,1.94
1385.962,455.5,1.94
1386.55,456.0,1.94
1387.138,456.5,1.94
1387.728,457.0,1.939
1388.312,457.5,1.939
1388.89,458.0,1.939
1389.479,458.5,1.939
1390.069,459.0,1.939
1390.658,459.5,1.939
1391.242,460.0,1.939
1391.818,460.5,1.939
1392.405,461.0,1.939
1392.998,461.5,1.938
1393.58,462.0,1.938
1394.161,462.5,1.938
1394.74,463.0,1.938
1395.324,463.5,1.938
1395.91,464.0,1.938
1396.498,464.5,1.938
1397.085,465.0,1.937
1397.663,465.5,1.937
1398.245,466.0,1.937
1398.833,466.5,1.937
1399.417,467.0,1.937
1399.999,467.5,1.936
1400.586,468.0,1.936
1401.17,468.5,1.936
1401.748,469.0,1.936
1402.333,469.5,1.936
1402.922,470.0,1.935
1403.502,470.5,1.935
1404.082,471.0,1.935
1404.677,471.5,1.935
1405.264,472.0,1.935
1405.842,472.5,1.934
1406.423,473.0,1.934
1407.006,473.5,1.934
1407.588,474.0,1.933
1408.171,474.5,1.933
1408.756,475.0,1.933
1409.339,475.5,1.933
1409.922,476.0,1.932
1410.511,476.5,1.932
1411.1,477.0,1.932
1411.678,477.5,1.931
1412.26,478.0,1.931
1412.845,478.5,1.931
1413.427,479.0,1.931
1414.008,479.5,1.93
1414.583,480.0,1.93
1415.162,480.5,1.93
1415.75,481.0,1.929
1416.334,481.5,1.929
1416.917,482.0,1.928
1417.498,482.5,1.928
1418.079,483.0,1.928
1418.658,483.5,1.927
1419.24,484.0,1.927
1419.826,484.5,1.927
1420.405,485.0,1.927
1420.98,485.5,1.926
1421.57,486.0,1.925
1422.158,486.5,1.925
1422.741,487.0,1.925
1423.324,487.5,1.925
1423.906,488.0,1.924
1424.493,488.5,1.924
1425.079,489.0,1.923
1425.656,489.5,1.922
1426.237,490.0,1.922
1426.828,490.5,1.922
1427.409,491.0,1.922
1427.986,491.5,1.921
1428.564,492.0,1.92
1429.144,492.5,1.92
1429.735,493.0,1.919
1430.317,493.5,1.919
1430.892,494.0,1.918
1431.471,494.5,1.918
1432.052,495.0,1.918
1432.637,495.5,1.917
1433.221,496.0,1.917
1433.804,496.5,1.916
1434.382,497.0,1.916
1434.959,497.5,1.915
1435.541,498.0,1.914
1436.125,498.5,1.914
1436.713,499.0,1.913
1437.295,499.5,1.913
1437.872,500.0,1.912
1438.453,500.5,1.912
1439.035,501.0,1.912
1439.616,501.5,1.911
1440.195,502.0,1.911
1440.773,502.5,1.91
1441.355,503.0,1.91
1441.939,503.5,1.909
1442.524,504.0,1.908
1443.108,504.5,1.908
1443.687,505.0,1.907
1444.268,505.5,1.907
1444.851,506.0,1.906
1445.429,506.5,1.906
1446.006,507.0,1.906
1446.582,507.5,1.905
1447.159,508.0,1.905
1447.74,508.5,1.904
1448.321,509.0,1.904
1448.901,509.5,1.903
1449.485,510.0,1.903
1450.069,510.5,1.902
1450.654,511.0,1.901
1451.239,511.5,1.901
1451.823,512.0,1.9
1452.399,512.5,1.9
1452.97,513.0,1.899
1453.552,513.5,1.898
1454.134,514.0,1.898
1454.713,514.5,1.897
1455.294,515.0,1.897
1455.879,515.5,1.896
1456.468,516.0,1.896
1457.057,516.5,1.895
1457.635,517.0,1.894
1458.213,517.5,1.894
1458.792,518.0,1.893
1459.372,518.5,1.893
1459.953,519.0,1.892
1460.537,519.5,1.891
1461.121,520.0,1.891
1461.705,520.5,1.89
1462.286,521.0,1.889
1462.866,521.5,1.888
1463.447,522.0,1.888
1464.028,522.5,1.887
1464.602,523.0,1.886
1465.18,523.5,1.886
1465.766,524.0,1.885
1466.347,524.5,1.885
1466.926,525.0,1.884
1467.51,525.5,1.883
1468.096,526.0,1.882
1468.688,526.5,1.881
1469.273,527.0,1.881
1469.848,527.5,1.88
1470.425,528.0,1.879
1471.002,528.5,1.878
1471.584,529.0,1.877
1472.165,529.5,1.877
1472.747,530.0,1.876
1473.326,530.5,1.875
1473.905,531.0,1.874
1474.487,531.5,1.874
1475.069,532.0,1.873
1475.654,532.5,1.872
1476.235,533.0,1.871
1476.811,533.5,1.87
1477.394,534.0,1.869
1477.98,534.5,1.868
1478.566,535.0,1.867
1479.151,535.5,1.867
1479.738,536.0,1.866
1480.322,536.5,1.865
1480.902,537.0,1.864
1481.482,537.5,1.863
1482.062,538.0,1.862
1482.642,538.5,1.861
1483.224,539.0,1.86
1483.808,539.5,1.858
1484.391,540.0,1.857
1484.972,540.5,1.856
1485.552,541.0,1.855
1486.133,541.5,1.855
1486.716,542.0,1.854
1487.297,542.5,1.852
1487.876,543.0,1.851
1488.459,543.5,1.85
1489.042,544.0,1.849
1489.626,544.5,1.848
1490.21,545.0,1.847
1490.794,545.5,1.845
1491.379,546.0,1.844
1491.964,546.5,1.843
1492.55,547.0,1.841
1493.136,547.5,1.84
1493.719,548.0,1.839
1494.301,548.5,1.837
1494.883,549.0,1.836
1495.462,549.5,1.835
1496.041,550.0,1.834
1496.626,550.5,1.832
1497.209,551.0,1.831
1497.786,551.5,1.829
1498.371,552.0,1.828
1498.961,552.5,1.827
1499.549,553.0,1.825
1500.134,553.5,1.824
1500.71,554.0,1.823
1501.29,554.5,1.821
1501.875,555.0,1.819
1502.461,555.5,1.818
1503.046,556.0,1.817
1503.625,556.5,1.815
1504.207,557.0,1.813
1504.795,557.5,1.812
1505.378,558.0,1.81
1505.958,558.5,1.809
1506.546,559.0,1.807
1507.132,559.5,1.806
1507.712,560.0,1.804
1508.297,560.5,1.802
1508.887,561.0,1.801
1509.469,561.5,1.8
1510.051,562.0,1.798
1510.642,562.5,1.796
1511.225,563.0,1.794
1511.797,563.5,1.793
1512.377,564.0,1.791
1512.964,564.5,1.789
1513.545,565.0,1.787
1514.128,565.5,1.786
1514.715,566.0,1.784
1515.301,566.5,1.782
1515.887,567.0,1.78
1516.471,567.5,1.779
1517.055,568.0,1.777
1517.641,568.5,1.775
1518.227,569.0,1.773
1518.814,569.5,1.772
1519.397,570.0,1.77
1519.978,570.5,1.768
1520.566,571.0,1.766
1521.153,571.5,1.764
1521.737,572.0,1.762
1522.323,572.5,1.76
1522.911,573.0,1.758
1523.498,573.5,1.756
1524.084,574.0,1.754
1524.666,574.5,1.752
1525.248,575.0,1.75
1525.829,575.5,1.749
1526.417,576.0,1.746
1527.007,576.5,1.744
1527.599,577.0,1.742
1528.188,577.5,1.739
1528.771,578.0,1.738
1529.355,578.5,1.736
1529.939,579.0,1.733
1530.521,579.5,1.731
1531.103,580.0,1.73
1531.689,580.5,1.727
1532.274,581.0,1.725
1532.857,581.5,1.723
1533.443,582.0,1.72
1534.031,582.5,1.718
1534.625,583.0,1.716
1535.214,583.5,1.714
1535.796,584.0,1.712
1536.382,584.5,1.709
1536.971,585.0,1.707
1537.563,585.5,1.705
1538.153,586.0,1.702
1538.731,586.5,1.7
1539.314,587.0,1.698
1539.9,587.5,1.695
1540.485,588.0,1.693
1541.071,588.5,1.691
1541.664,589.0,1.688
1542.254,589.5,1.686
1542.839,590.0,1.683
1543.423,590.5,1.68
1544.007,591.0,1.678
1544.597,591.5,1.676
1545.185,592.0,1.673
1545.767,592.5,1.67
1546.354,593.0,1.668
1546.945,593.5,1.665
1547.538,594.0,1.662
1548.13,594.5,1.659
1548.715,595.0,1.657
1549.302,595.5,1.654
1549.893,596.0,1.652
1550.481,596.5,1.649
1551.069,597.0,1.647
1551.65,597.5,1.644
1552.236,598.0,1.641
1552.83,598.5,1.638
1553.425,599.0,1.635
1554.02,599.5,1.632
1554.598,600.0,1.629
1555.181,600.5,1.626
1555.776,601.0,1.623
1556.368,601.5,1.62
1556.959,602.0,1.617
1557.545,602.5,1.614
1558.134,603.0,1.611
1558.73,603.5,1.608
1559.32,604.0,1.604
1559.905,604.5,1.601
1560.493,605.0,1.598
1561.082,605.5,1.595
1561.676,606.0,1.592
1562.267,606.5,1.588
1562.856,607.0,1.585
1563.447,607.5,1.581
1564.039,608.0,1.578
1564.628,608.5,1.575
1565.217,609.0,1.572
1565.807,609.5,1.568
1566.395,610.0,1.565
1566.982,610.5,1.561
1567.571,611.0,1.558
1568.163,611.5,1.554
1568.762,612.0,1.55
1569.355,612.5,1.546
1569.946,613.0,1.542
1570.535,613.5,1.539
1571.123,614.0,1.535
1571.706,614.5,1.531
1572.294,615.0,1.527
1572.886,615.5,1.524
1573.486,616.0,1.52
1574.085,616.5,1.515
1574.676,617.0,1.511
1575.267,617.5,1.507
1575.859,618.0,1.503
1576.449,618.5,1.499
1577.038,619.0,1.495
1577.626,619.5,1.491
1578.216,620.0,1.486
1578.811,620.5,1.482
1579.404,621.0,1.478
1579.996,621.5,1.474
1580.59,622.0,1.469
1581.184,622.5,1.465
1581.783,623.0,1.461
1582.378,623.5,1.456
1582.97,624.0,1.451
1583.565,624.5,1.447
1584.157,625.0,1.443
1584.743,625.5,1.438
1585.336,626.0,1.433
1585.933,626.5,1.429
1586.524,627.0,1.424
1587.116,627.5,1.419
1587.715,628.0,1.414
1588.31,628.5,1.41
1588.901,629.0,1.405
1589.494,629.5,1.4
1590.089,630.0,1.395
1590.687,630.5,1.39
1591.28,631.0,1.385
1591.867,631.5,1.38
1592.459,632.0,1.375
1593.051,632.5,1.37
1593.648,633.0,1.365
1594.244,633.5,1.36
1594.84,634.0,1.354
1595.435,634.5,1.35
1596.029,635.0,1.345
1596.625,635.5,1.339
1597.222,636.0,1.334
1597.82,636.5,1.329
1598.415,637.0,1.323
1599.007,637.5,1.318
1599.606,638.0,1.313
1600.204,638.5,1.307
1600.8,639.0,1.302
1601.392,639.5,1.296
1601.981,640.0,1.291
1602.585,640.5,1.286
1603.187,641.0,1.28
1603.788,641.5,1.274
1604.385,642.0,1.269
1604.98,642.5,1.263
1605.576,643.0,1.257
1606.171,643.5,1.251
1606.762,644.0,1.246
1607.365,644.5,1.24
1607.974,645.0,1.234
1608.57,645.5,1.228
1609.166,646.0,1.223
1609.762,646.5,1.217
1610.355,647.0,1.211
1610.946,647.5,1.206
1611.548,648.0,1.2
1612.149,648.5,1.194
1612.743,649.0,1.188
1613.34,649.5,1.182
1613.94,650.0,1.176
1614.541,650.5,1.17
1615.14,651.0,1.163
1615.733,651.5,1.157
1616.333,652.0,1.151
1616.937,652.5,1.145
1617.543,653.0,1.138
1618.146,653.5,1.132
1618.742,654.0,1.126
1619.335,654.5,1.119
1619.928,655.0,1.113
1620.528,655.5,1.106
1621.129,656.0,1.1
1621.728,656.5,1.093
1622.326,657.0,1.086
1622.924,657.5,1.08
1623.532,658.0,1.073
1624.14,658.5,1.066
1624.74,659.0,1.059
1625.341,659.5,1.052
1625.942,660.0,1.046
1626.543,660.5,1.038
1627.144,661.0,1.031
1627.743,661.5,1.024
1628.343,662.0,1.017
1628.944,662.5,1.011
1629.548,663.0,1.003
1630.151,663.5,0.996
1630.752,664.0,0.988
1631.359,664.5,0.981
1631.969,665.0,0.973
1632.574,665.5,0.966
1633.174,666.0,0.958
1633.766,666.5,0.951
1634.367,667.0,0.943
1634.973,667.5,0.935
1635.575,668.0,0.927
1636.175,668.5,0.919
1636.773,669.0,0.911
1637.376,669.5,0.903
1637.983,670.0,0.895
1638.59,670.5,0.887
1639.196,671.0,0.879
1639.8,671.5,0.871
1640.405,672.0,0.862
1641.01,672.5,0.854
1641.615,673.0,0.845
1642.219,673.5,0.837
1642.821,674.0,0.829
1643.424,674.5,0.82
1644.028,675.0,0.812
1644.631,675.5,0.803
1645.236,676.0,0.794
1645.844,676.5,0.785
1646.442,677.0,0.777
1647.036,677.5,0.768
1647.635,678.0,0.759
1648.235,678.5,0.751
1648.837,679.0,0.742
1649.444,679.5,0.734
1650.051,680.0,0.725
1650.644,680.5,0.716
1651.24,681.0,0.708
1651.838,681.5,0.699
1652.442,682.0,0.691
1653.047,682.5,0.683
1653.648,683.0,0.675
1654.248,683.5,0.667
1654.849,684.0,0.658
1655.445,684.5,0.65
1656.041,685.0,0.642
1656.646,685.5,0.635
1657.252,686.0,0.627
1657.86,686.5,0.62
1658.457,687.0,0.613
1659.051,687.5,0.605
1659.643,688.0,0.599
1660.24,688.5,0.592
1660.842,689.0,0.586
1661.442,689.5,0.579
1662.042,690.0,0.573
1662.643,690.5,0.567
1663.242,691.0,0.561
1663.838,691.5,0.555
1664.44,692.0,0.55
1665.043,692.5,0.545
1665.641,693.0,0.54
1666.242,693.5,0.535
1666.847,694.0,0.53
1667.442,694.5,0.526
1668.032,695.0,0.523
1668.63,695.5,0.519
1669.231,696.0,0.516
1669.838,696.5,0.512
1670.439,697.0,0.508
1671.037,697.5,0.505
1671.632,698.0,0.502
1672.233,698.5,0.5
1672.844,699.0,0.498
1673.443,699.5,0.495
1674.039,700.0,0.493
1674.64,700.5,0.49
1675.243,701.0,0.489
1675.848,701.5,0.487
1676.448,702.0,0.486
1677.048,702.5,0.484
1677.66,703.0,0.482
1678.266,703.5,0.48
1678.864,704.0,0.479
1679.467,704.5,0.478
1680.071,705.0,0.477
1680.675,705.5,0.476
1681.276,706.0,0.474
1681.872,706.5,0.473
1682.475,707.0,0.473
1683.078,707.5,0.472
1683.677,708.0,0.471
1684.278,708.5,0.47
1684.88,709.0,0.469
1685.484,709.5,0.468
1686.09,710.0,0.467
1686.696,710.5,0.466
1687.299,711.0,0.466
1687.9,711.5,0.465
1688.504,712.0,0.464
1689.108,712.5,0.464
1689.711,713.0,0.463
1690.314,713.5,0.462
1690.917,714.0,0.461
1691.516,714.5,0.46
1692.118,715.0,0.46
1692.729,715.5,0.459
1693.337,716.0,0.459
1693.941,716.5,0.458
1694.543,717.0,0.457
1695.146,717.5,0.457
1695.75,718.0,0.456
1696.356,718.5,0.456
1696.962,719.0,0.455
1697.562,719.5,0.454
1698.164,720.0,0.454
1698.774,720.5,0.453
1699.378,721.0,0.453
1699.978,721.5,0.452
1700.581,722.0,0.451
1701.184,722.5,0.451
1701.791,723.0,0.45
1702.395,723.5,0.45
1702.996,724.0,0.449
1703.607,724.5,0.448
1704.215,725.0,0.448
1704.821,725.5,0.447
1705.426,726.0,0.447
1706.03,726.5,0.446
1706.633,727.0,0.445
1707.237,727.5,0.445
1707.841,728.0,0.444
1708.45,728.5,0.444
1709.061,729.0,0.443
1709.661,729.5,0.442
1710.262,730.0,0.442
1710.866,730.5,0.441
1711.472,731.0,0.441
1712.079,731.5,0.44
1712.687,732.0,0.439
1713.295,732.5,0.439
1713.905,733.0,0.438
1714.505,733.5,0.437
1715.104,734.0,0.437
1715.706,734.5,0.436
1716.313,735.0,0.436
1716.925,735.5,0.435
1717.529,736.0,0.434
1718.132,736.5,0.434
1718.739,737.0,0.434
1719.347,737.5,0.434
1719.956,738.0,0.433
1720.561,738.5,0.432
1721.164,739.0,0.432
1721.764,739.5,0.431
1722.369,740.0,0.431
1722.977,740.5,0.43
1723.587,741.0,0.429
1724.193,741.5,0.429
1724.794,742.0,0.428
1725.4,742.5,0.428
1726.011,743.0,0.428
1726.617,743.5,0.427
1727.224,744.0,0.427
1727.832,744.5,0.426
1728.44,745.0,0.426
1729.047,745.5,0.425
1729.65,746.0,0.424
1730.257,746.5,0.424
1730.869,747.0,0.423
1731.476,747.5,0.423
1732.081,748.0,0.423
1732.682,748.5,0.422
1733.289,749.0,0.422
1733.901,749.5,0.421
1734.508,750.0,0.42
1735.114,750.5,0.42
1735.719,751.0,0.419
1736.324,751.5,0.419
1736.928,752.0,0.419
1737.535,752.5,0.418
1738.142,753.0,0.418
1738.747,753.5,0.417
1739.354,754.0,0.417
1739.962,754.5,0.416
1740.568,755.0,0.416
1741.176,755.5,0.416
1741.785,756.0,0.415
1742.389,756.5,0.415
1742.99,757.0,0.414
1743.602,757.5,0.414
1744.212,758.0,0.414
1744.816,758.5,0.413
1745.419,759.0,0.413
1746.022,759.5,0.412
1746.64,760.0,0.412
1747.251,760.5,0.412
1747.853,761.0,0.411
1748.461,761.5,0.411
1749.07,762.0,0.41
1749.676,762.5,0.41
1750.282,763.0,0.41
1750.888,763.5,0.409
1751.497,764.0,0.409
1752.105,764.5,0.408
1752.711,765.0,0.408
1753.318,765.5,0.408
1753.928,766.0,0.407
1754.536,766.5,0.407
1755.144,767.0,0.407
1755.755,767.5,0.406
1756.361,768.0,0.406
1756.964,768.5,0.405
1757.573,769.0,0.405
1758.182,769.5,0.405
1758.791,770.0,0.404
1759.399,770.5,0.404
1760.007,771.0,0.404
1760.617,771.5,0.403
1761.225,772.0,0.403
1761.829,772.5,0.402
1762.434,773.0,0.402
1763.04,773.5,0.402
1763.652,774.0,0.401
1764.26,774.5,0.401
1764.866,775.0,0.401
1765.472,775.5,0.401
1766.078,776.0,0.4
1766.681,776.5,0.4
1767.289,777.0,0.4
1767.904,777.5,0.399
1768.508,778.0,0.399
1769.111,778.5,0.399
1769.723,779.0,0.398
1770.331,779.5,0.398
1770.936,780.0,0.398
1771.543,780.5,0.397
1772.152,781.0,0.397
1772.764,781.5,0.397
1773.369,782.0,0.397
1773.97,782.5,0.396
1774.581,783.0,0.396
1775.19,783.5,0.396
1775.794,784.0,0.395
1776.4,784.5,0.395
1777.005,785.0,0.395
1777.62,785.5,0.394
1778.231,786.0,0.394
1778.836,786.5,0.394
1779.444,787.0,0.394
1780.054,787.5,0.394
1780.658,788.0,0.393
1781.263,788.5,0.393
1781.868,789.0,0.393
1782.48,789.5,0.393
1783.093,790.0,0.392
1783.694,790.5,0.392
1784.301,791.0,0.392
1784.913,791.5,0.391
1785.519,792.0,0.391
1786.126,792.5,0.391
1786.737,793.0,0.391
1787.343,793.5,0.391
1787.945,794.0,0.39
1788.555,794.5,0.39
1789.165,795.0,0.39
1789.774,795.5,0.389
1790.382,796.0,0.389
1790.99,796.5,0.389
1791.595,797.0,0.389
1792.201,797.5,0.389
1792.81,798.0,0.388
1793.412,798.5,0.388
1794.011,799.0,0.388
1794.628,799.5,0.387
1795.239,800.0,0.387
1795.841,800.5,0.387
1796.446,801.0,0.387
1797.051,801.5,0.387
1797.658,802.0,0.386
1798.266,802.5,0.386
1798.877,803.0,0.386
1799.478,803.5,0.386
1800.08,804.0,0.386
1800.692,804.5,0.385
1801.301,805.0,0.385
1801.907,805.5,0.385
1802.513,806.0,0.384
1803.12,806.5,0.384
1803.725,807.0,0.384
1804.333,807.5,0.384
1804.942,808.0,0.384
1805.549,808.5,0.383
1806.158,809.0,0.383
1806.773,809.5,0.383
1807.379,810.0,0.383
1807.981,810.5,0.383
1808.585,811.0,0.382
1809.191,811.5,0.382
1809.805,812.0,0.382
1810.415,812.5,0.382
1811.023,813.0,0.382
1811.626,813.5,0.381
1812.232,814.0,0.381
1812.844,814.5,0.381
1813.449,815.0,0.381
1814.053,815.5,0.381
1814.659,816.0,0.38
1815.265,816.5,0.38
1815.872,817.0,0.38
1816.478,817.5,0.38
1817.082,818.0,0.38
1817.685,818.5,0.379
1818.292,819.0,0.379
1818.902,819.5,0.379
1819.513,820.0,0.378
1820.121,820.5,0.378
1820.722,821.0,0.378
1821.328,821.5,0.378
1821.938,822.0,0.378
1822.541,822.5,0.378
1823.146,823.0,0.378
1823.76,823.5,0.377
1824.369,824.0,0.377
1824.977,824.5,0.377
1825.583,825.0,0.377
1826.189,825.5,0.377
1826.796,826.0,0.376
1827.401,826.5,0.376
1828.006,827.0,0.376
1828.617,827.5,0.376
1829.227,828.0,0.376
1829.837,828.5,0.375
1830.441,829.0,0.375
1831.045,829.5,0.375
1831.652,830.0,0.375
1832.26,830.5,0.375
1832.869,831.0,0.374
1833.48,831.5,0.374
1834.091,832.0,0.374
1834.691,832.5,0.374
1835.294,833.0,0.374
1835.9,833.5,0.374
1836.511,834.0,0.373
1837.122,834.5,0.373
1837.728,835.0,0.373
1838.334,835.5,0.373
1838.938,836.0,0.373
1839.546,836.5,0.372
1840.153,837.0,0.372
1840.762,837.5,0.372
1841.371,838.0,0.372
1841.978,838.5,0.372
1842.579,839.0,0.372
1843.184,839.5,0.372
1843.796,840.0,0.371
1844.403,840.5,0.371
1845.008,841.0,0.371
1845.615,841.5,0.371
1846.22,842.0,0.371
1846.822,842.5,0.37
1847.431,843.0,0.37
1848.042,843.5,0.37
1848.642,844.0,0.37
1849.247,844.5,0.37
1849.858,845.0,0.37
1850.465,845.5,0.37
1851.072,846.0,0.369
1851.683,846.5,0.369
1852.292,847.0,0.369
1852.899,847.5,0.369
1853.51,848.0,0.369
1854.12,848.5,0.369
1854.723,849.0,0.368
1855.329,849.5,0.368
1855.936,850.0,0.368
1856.544,850.5,0.368
1857.152,851.0,0.368
1857.756,851.5,0.367
1858.363,852.0,0.367
1858.973,852.5,0.367
1859.576,853.0,0.367
1860.181,853.5,0.367
1860.794,854.0,0.367
1861.401,854.5,0.367
1862.005,855.0,0.366
1862.608,855.5,0.366
1863.212,856.0,0.366
1863.819,856.5,0.366
1864.423,857.0,0.366
1865.027,857.5,0.366
1865.643,858.0,0.365
1866.254,858.5,0.365
1866.857,859.0,0.365
1867.459,859.5,0.365
1868.06,860.0,0.365
1868.668,860.5,0.365
1869.277,861.0,0.365
1869.888,861.5,0.364
1870.487,862.0,0.364
1871.087,862.5,0.364
1871.703,863.0,0.364
1872.315,863.5,0.364
1872.922,864.0,0.363
1873.525,864.5,0.363
1874.128,865.0,0.363
1874.738,865.5,0.363
1875.348,866.0,0.363
1875.957,866.5,0.363
1876.564,867.0,0.362
1877.169,867.5,0.362
1877.771,868.0,0.362
1878.376,868.5,0.362
1878.982,869.0,0.362
1879.584,869.5,0.362
1880.189,870.0,0.362
1880.801,870.5,0.361
1881.407,871.0,0.361
1882.01,871.5,0.361
1882.618,872.0,0.361
1883.227,872.5,0.361
1883.836,873.0,0.361
1884.441,873.5,0.361
1885.046,874.0,0.36
1885.655,874.5,0.36
1886.261,875.0,0.36
1886.863,875.5,0.36
1887.47,876.0,0.36
1888.077,876.5,0.36
1888.68,877.0,0.359
1889.284,877.5,0.359
1889.891,878.0,0.359
1890.493,878.5,0.359
1891.095,879.0,0.359
1891.707,879.5,0.359
1892.315,880.0,0.359
1892.92,880.5,0.358
1893.524,881.0,0.358
1894.129,881.5,0.358
1894.741,882.0,0.358
1895.345,882.5,0.358
1895.945,883.0,0.358
1896.552,883.5,0.358
1897.159,884.0,0.358
1897.765,884.5,0.357
1898.368,885.0,0.357
1898.97,885.5,0.357
1899.572,886.0,0.357
1900.176,886.5,0.357
1900.785,887.0,0.357
1901.396,887.5,0.357
1902.007,888.0,0.356
1902.608,888.5,0.356
1903.21,889.0,0.356
1903.815,889.5,0.356
1904.423,890.0,0.356
1905.032,890.5,0.356
1905.63,891.0,0.355
1906.23,891.5,0.355
1906.834,892.0,0.355
1907.445,892.5,0.355
1908.058,893.0,0.355
1908.664,893.5,0.355
1909.268,894.0,0.355
1909.869,894.5,0.354
1910.471,895.0,0.354
1911.074,895.5,0.354
1911.684,896.0,0.354
1912.288,896.5,0.354
1912.886,897.0,0.354
1913.492,897.5,0.354
1914.099,898.0,0.354
1914.708,898.5,0.353
1915.317,899.0,0.353
1915.926,899.5,0.353
1916.526,900.0,0.353
1917.126,900.5,0.353
1917.734,901.0,0.353
1918.339,901.5,0.353
1918.941,902.0,0.353
1919.543,902.5,0.352
1920.145,903.0,0.352
1920.75,903.5,0.352
1921.358,904.0,0.352
1921.969,904.5,0.352
1922.57,905.0,0.352
1923.172,905.5,0.352
1923.779,906.0,0.351
1924.382,906.5,0.351
1924.982,907.0,0.351
1925.589,907.5,0.351
1926.195,908.0,0.351
1926.799,908.5,0.351
1927.405,909.0,0.351
1928.013,909.5,0.351
1928.615,910.0,0.35
1929.217,910.5,0.35
1929.82,911.0,0.35
1930.426,911.5,0.35
1931.033,912.0,0.35
1931.637,912.5,0.35
1932.241,913.0,0.35
1932.844,913.5,0.35
1933.449,914.0,0.35
1934.054,914.5,0.349
1934.656,915.0,0.349
1935.259,915.5,0.349
1935.863,916.0,0.349
1936.463,916.5,0.349
1937.062,917.0,0.349
1937.67,917.5,0.349
1938.274,918.0,0.349
1938.876,918.5,0.348
1939.475,919.0,0.348
1940.075,919.5,0.348
1940.68,920.0,0.348
1941.288,920.5,0.348
1941.902,921.0,0.348
1942.499,921.5,0.348
1943.095,922.0,0.348
1943.701,922.5,0.347
1944.306,923.0,0.347
1944.907,923.5,0.347
1945.509,924.0,0.347
1946.112,924.5,0.347
1946.719,925.0,0.347
1947.327,925.5,0.347
1947.936,926.0,0.347
1948.538,926.5,0.346
1949.14,927.0,0.346
1949.743,927.5,0.346
1950.347,928.0,0.346
1950.952,928.5,0.346
1951.554,929.0,0.346
1952.155,929.5,0.346
1952.757,930.0,0.346
1953.361,930.5,0.346
1953.967,931.0,0.346
1954.569,931.5,0.345
1955.17,932.0,0.345
1955.771,932.5,0.345
1956.373,933.0,0.345
1956.975,933.5,0.345
1957.58,934.0,0.345
1958.185,934.5,0.345
1958.792,935.0,0.345
1959.396,935.5,0.345
1959.999,936.0,0.345
1960.597,936.5,0.344
1961.198,937.0,0.344
1961.806,937.5,0.344
1962.409,938.0,0.344
1963.01,938.5,0.344
1963.607,939.0,0.344
1964.207,939.5,0.344
1964.813,940.0,0.344
1965.419,940.5,0.344
1966.025,941.0,0.344
1966.632,941.5,0.343
1967.236,942.0,0.343
1967.84,942.5,0.343
1968.438,943.0,0.343
1969.036,943.5,0.343
1969.638,944.0,0.343
1970.243,944.5,0.343
1970.853,945.0,0.343
1971.451,945.5,0.343
1972.045,946.0,0.343
1972.653,946.5,0.342
1973.261,947.0,0.342
1973.867,947.5,0.342
1974.467,948.0,0.342
1975.066,948.5,0.342
1975.663,949.0,0.342
1976.266,949.5,0.342
1976.875,950.0,0.342
1977.48,950.5,0.342
1978.085,951.0,0.342
1978.69,951.5,0.341
1979.292,952.0,0.341
1979.89,952.5,0.341
1980.489,953.0,0.341
1981.089,953.5,0.341
1981.696,954.0,0.341
1982.302,954.5,0.341
1982.905,955.0,0.341
1983.511,955.5,0.341
1984.116,956.0,0.341
1984.716,956.5,0.341
1985.318,957.0,0.341
1985.923,957.5,0.34
1986.522,958.0,0.34
1987.12,958.5,0.34
1987.723,959.0,0.34
1988.323,959.5,0.34
1988.922,960.0,0.34
1989.524,960.5,0.34
1990.127,961.0,0.34
1990.731,961.5,0.34
1991.336,962.0,0.34
1991.942,962.5,0.34
1992.539,963.0,0.339
1993.14,963.5,0.339
1993.754,964.0,0.339
1994.358,964.5,0.339
1994.955,965.0,0.339
1995.563,965.5,0.339
1996.171,966.0,0.339
1996.774,966.5,0.339
1997.377,967.0,0.339
1997.978,967.5,0.339
1998.584,968.0,0.339
1999.191,968.5,0.339
1999.797,969.0,0.339
2000.398,969.5,0.339
2000.995,970.0,0.338
2001.595,970.5,0.338
2002.198,971.0,0.338
2002.807,971.5,0.338
2003.411,972.0,0.338
2004.013,972.5,0.338
2004.621,973.0,0.338
2005.225,973.5,0.338
2005.825,974.0,0.338
2006.424,974.5,0.338
2007.023,975.0,0.338
2007.628,975.5,0.338
2008.232,976.0,0.338
2008.838,976.5,0.337
2009.439,977.0,0.337
2010.039,977.5,0.337
2010.635,978.0,0.337
2011.236,978.5,0.337
2011.843,979.0,0.337
2012.448,979.5,0.337
2013.052,980.0,0.337
2013.658,980.5,0.337
2014.261,981.0,0.337
2014.86,981.5,0.337
2015.463,982.0,0.337
2016.067,982.5,0.337
2016.667,983.0,0.337
2017.268,983.5,0.337
2017.868,984.0,0.336
2018.473,984.5,0.336
2019.079,985.0,0.336
2019.685,985.5,0.336
2020.29,986.0,0.336
2020.893,986.5,0.336
2021.495,987.0,0.336
2022.096,987.5,0.336
2022.693,988.0,0.336
2023.293,988.5,0.336
2023.895,989.0,0.336
2024.503,989.5,0.336
2025.11,990.0,0.336
2025.706,990.5,0.336
2026.309,991.0,0.336
2026.917,991.5,0.335
2027.519,992.0,0.335
2028.12,992.5,0.335
2028.728,993.0,0.335
2029.333,993.5,0.335
2029.935,994.0,0.335
2030.541,994.5,0.335
2031.145,995.0,0.335
2031.746,995.5,0.335
2032.346,996.0,0.335
2032.944,996.5,0.335
2033.542,997.0,0.335
2034.142,997.5,0.335
2034.75,998.0,0.335
2035.353,998.5,0.335
2035.953,999.0,0.334
2036.557,999.5,0.334
2037.161,1000.0,0.334
2037.765,1000.5,0.334
2038.367,1001.0,0.334
2038.966,1001.5,0.334
2039.567,1002.0,0.334
2040.168,1002.5,0.334
2040.766,1003.0,0.334
2041.367,1003.5,0.334
2041.968,1004.0,0.334
2042.578,1004.5,0.334
2043.185,1005.0,0.334
2043.785,1005.5,0.334
2044.387,1006.0,0.334
2044.989,1006.5,0.334
2045.592,1007.0,0.333
2046.193,1007.5,0.333
2046.793,1008.0,0.333
2047.392,1008.5,0.333
2047.99,1009.0,0.333
2048.592,1009.5,0.333
2049.194,1010.0,0.333
2049.798,1010.5,0.333
2050.402,1011.0,0.333
2051.005,1011.5,0.333
2051.609,1012.0,0.333
2052.212,1012.5,0.333
2052.812,1013.0,0.333
2053.414,1013.5,0.333
2054.016,1014.0,0.333
2054.617,1014.5,0.332
2055.217,1015.0,0.332
2055.818,1015.5,0.332
2056.417,1016.0,0.332
2057.016,1016.5,0.332
2057.619,1017.0,0.332
2058.224,1017.5,0.332
2058.832,1018.0,0.332
2059.43,1018.5,0.332
2060.025,1019.0,0.332
2060.628,1019.5,0.332
2061.232,1020.0,0.332
2061.837,1020.5,0.332
2062.437,1021.0,0.332
2063.036,1021.5,0.332
2063.639,1022.0,0.332
2064.245,1022.5,0.332
2064.853,1023.0,0.332
2065.453,1023.5,0.332
2066.051,1024.0,0.331
2066.645,1024.5,0.331
2067.243,1025.0,0.331
2067.849,1025.5,0.331
2068.453,1026.0,0.331
2069.057,1026.5,0.331
2069.656,1027.0,0.331
2070.258,1027.5,0.331
2070.865,1028.0,0.331
2071.468,1028.5,0.331
2072.069,1029.0,0.331
2072.668,1029.5,0.331
2073.267,1030.0,0.331
2073.867,1030.5,0.331
2074.471,1031.0,0.331
2075.074,1031.5,0.331
2075.663,1032.0,0.331
2076.262,1032.5,0.331
2076.874,1033.0,0.33
2077.474,1033.5,0.33
2078.072,1034.0,0.33
2078.672,1034.5,0.33
2079.272,1035.0,0.33
2079.87,1035.5,0.33
2080.468,1036.0,0.33
2081.066,1036.5,0.33
2081.666,1037.0,0.33
2082.271,1037.5,0.33
2082.883,1038.0,0.33
2083.476,1038.5,0.33
2084.068,1039.0,0.33
2084.671,1039.5,0.33
2085.275,1040.0,0.33
2085.878,1040.5,0.33
2086.481,1041.0,0.33
2087.085,1041.5,0.329
2087.688,1042.0,0.329
2088.288,1042.5,0.329
2088.883,1043.0,0.329
2089.485,1043.5,0.329
2090.088,1044.0,0.329
2090.69,1044.5,0.329
2091.292,1045.0,0.329
2091.895,1045.5,0.329
2092.494,1046.0,0.329
2093.093,1046.5,0.329
2093.7,1047.0,0.329
2094.302,1047.5,0.329
2094.9,1048.0,0.329
2095.497,1048.5,0.329
2096.094,1049.0,0.328
2096.69,1049.5,0.328
2097.289,1050.0,0.328
2097.89,1050.5,0.328
2098.49,1051.0,0.328
2099.089,1051.5,0.328
2099.686,1052.0,0.328
2100.286,1052.5,0.328
2100.888,1053.0,0.328
2101.485,1053.5,0.328
2102.081,1054.0,0.328
2102.677,1054.5,0.328
2103.244,1055.0,0.328
2103.776,1055.5,0.328
2104.628,1056.0,0.328
2105.726,1056.5,0.328
2106.687,1057.0,0.328
2107.588,1057.5,0.328
2108.496,1058.0,0.328
2109.433,1058.5,0.327
2110.4,1059.0,0.327
2111.401,1059.5,0.327
2112.459,1060.0,0.327
2113.579,1060.5,0.327
2114.757,1061.0,0.327
2116.015,1061.5,0.327
2117.313,1062.0,0.327
2118.701,1062.5,0.326
2120.159,1063.0,0.326
2124.0,1064.158,0.326
2134.0,1066.435,0.326
2144.0,1067.954,0.325
2154.0,1069.001,0.325
2164.0,1069.717,0.324
2174.0,1070.245,0.324
2184.0,1070.632,0.324
2194.0,1070.93,0.323
2204.0,1071.16,0.323
2214.0,1071.344,0.323
2224.0,1071.5,0.322
2234.0,1071.625,0.322
2244.0,1071.742,0.322
2254.0,1071.832,0.321
2264.0,1071.919,0.321
2274.0,1071.99,0.321
2284.0,1072.036,0.321
2294.0,1072.102,0.32
2304.0,1072.138,0.32
2314.0,1072.181,0.32
2324.0,1072.212,0.32
2334.0,1072.254,0.319
2344.0,1072.275,0.319
2354.0,1072.291,0.319
2364.0,1072.316,0.319
2374.0,1072.342,0.318
2384.0,1072.351,0.318
2394.0,1072.37,0.318
2404.0,1072.385,0.318
2414.0,1072.386,0.318
2424.0,1072.404,0.318
