Time (s),Temperature (K),Mass (mg)
0.0,304.923,3.999
4.0,304.923,3.998
6.0,304.886,3.997
8.0,304.889,3.996
11.0,304.886,3.995
13.0,304.864,3.994
16.0,304.86,3.993
18.0,304.858,3.992
20.0,304.828,3.991
23.0,304.818,3.99
25.0,304.798,3.989
28.0,304.797,3.988
31.0,304.804,3.987
33.0,304.779,3.986
36.0,304.769,3.985
39.0,304.77,3.984
41.0,304.742,3.983
44.0,304.742,3.982
47.0,304.728,3.981
50.0,304.737,3.98
53.0,304.704,3.979
56.0,304.714,3.978
59.0,304.699,3.977
62.0,304.693,3.976
65.0,304.691,3.975
68.0,304.693,3.974
71.0,304.684,3.973
75.0,304.682,3.972
78.0,304.678,3.971
81.0,304.67,3.97
84.0,304.671,3.969
87.0,304.659,3.968
91.0,304.649,3.967
94.0,304.656,3.966
98.0,304.632,3.965
101.0,304.636,3.964
105.0,304.631,3.963
109.0,304.63,3.962
113.0,304.626,3.961
117.0,304.609,3.96
121.0,304.597,3.959
125.0,304.6,3.958
129.0,304.591,3.957
133.0,304.583,3.956
137.0,304.57,3.955
142.0,304.571,3.954
146.0,304.56,3.953
151.0,304.571,3.952
155.0,304.562,3.951
159.0,304.557,3.95
164.0,304.55,3.949
169.0,304.525,3.948
174.0,304.531,3.947
179.0,304.529,3.946
184.0,304.511,3.945
189.0,304.528,3.944
194.0,304.518,3.943
199.0,304.514,3.942
205.0,304.504,3.941
210.0,304.506,3.94
216.0,304.504,3.939
222.0,304.497,3.938
228.0,304.466,3.937
234.0,304.472,3.936
239.0,304.473,3.935
246.0,304.473,3.934
253.0,304.484,3.933
259.0,304.475,3.932
265.0,304.456,3.931
272.0,304.459,3.93
280.0,304.451,3.929
286.0,304.461,3.928
294.0,304.461,3.927
301.0,304.45,3.926
308.0,304.447,3.925
316.0,304.452,3.924
324.0,304.43,3.923
332.0,304.431,3.922
340.0,304.433,3.921
350.0,304.426,3.92
359.0,304.429,3.919
368.0,304.449,3.918
378.0,304.43,3.917
387.0,304.426,3.916
398.0,304.433,3.915
408.0,304.42,3.914
417.0,304.424,3.913
427.0,304.411,3.912
438.0,304.419,3.911
450.0,304.42,3.91
460.0,304.432,3.909
473.0,304.398,3.908
485.0,304.417,3.907
497.0,304.413,3.906
513.0,304.396,3.905
527.0,304.417,3.904
541.0,304.419,3.903
556.0,304.429,3.902
573.0,304.425,3.901
587.0,304.439,3.9
605.0,304.425,3.899
622.0,304.416,3.898
638.0,304.423,3.897
658.0,304.431,3.896
678.0,304.443,3.895
701.0,304.42,3.894
724.0,304.425,3.893
746.0,304.424,3.892
770.0,304.446,3.891
797.0,304.441,3.89
820.0,304.447,3.889
848.0,304.442,3.888
874.0,304.431,3.887
909.0,304.43,3.886
936.0,304.445,3.885
971.0,304.45,3.884
1012.0,304.442,3.883
1057.0,304.458,3.882
1093.0,304.454,3.881
1135.0,304.44,3.88
1195.0,304.441,3.879
1203.801,305.0,3.878
1205.04,305.5,3.877
1206.023,306.0,3.877
1206.834,306.5,3.876
1207.633,307.0,3.876
1208.477,307.5,3.876
1209.349,308.0,3.876
1210.184,308.5,3.876
1210.964,309.0,3.877
1211.681,309.5,3.877
1212.387,310.0,3.877
1213.081,310.5,3.878
1213.741,311.0,3.878
1214.39,311.5,3.878
1215.03,312.0,3.879
1215.664,312.5,3.88
1216.294,313.0,3.88
1216.919,313.5,3.88
1217.536,314.0,3.88
1218.155,314.5,3.88
1218.78,315.0,3.881
1219.395,315.5,3.881
1220.005,316.0,3.881
1220.615,316.5,3.881
1221.222,317.0,3.881
1221.825,317.5,3.881
1222.429,318.0,3.881
1223.032,318.5,3.88
1223.63,319.0,3.88
1224.233,319.5,3.88
1224.842,320.0,3.88
1225.439,320.5,3.88
1226.034,321.0,3.88
1226.641,321.5,3.88
1227.246,322.0,3.88
1227.849,322.5,3.879
1228.451,323.0,3.879
1229.052,323.5,3.879
1229.643,324.0,3.879
1230.235,324.5,3.879
1230.827,325.0,3.878
1231.425,325.5,3.878
1232.027,326.0,3.878
1232.63,326.5,3.878
1233.23,327.0,3.878
1233.826,327.5,3.877
1234.427,328.0,3.877
1235.03,328.5,3.877
1235.621,329.0,3.876
1236.215,329.5,3.876
1236.813,330.0,3.876
1237.411,330.5,3.876
1238.01,331.0,3.876
1238.611,331.5,3.875
1239.215,332.0,3.875
1239.821,332.5,3.875
1240.426,333.0,3.875
1241.031,333.5,3.875
1241.622,334.0,3.874
1242.218,334.5,3.874
1242.819,335.0,3.874
1243.414,335.5,3.874
1244.006,336.0,3.873
1244.617,336.5,3.873
1245.222,337.0,3.873
1245.819,337.5,3.873
1246.413,338.0,3.873
1247.007,338.5,3.872
1247.612,339.0,3.872
1248.217,339.5,3.872
1248.822,340.0,3.871
1249.426,340.5,3.871
1250.029,341.0,3.871
1250.631,341.5,3.87
1251.233,342.0,3.87
1251.833,342.5,3.869
1252.439,343.0,3.869
1253.046,343.5,3.869
1253.652,344.0,3.868
1254.254,344.5,3.868
1254.85,345.0,3.868
1255.45,345.5,3.868
1256.052,346.0,3.867
1256.66,346.5,3.866
1257.264,347.0,3.866
1257.865,347.5,3.866
1258.475,348.0,3.866
1259.084,348.5,3.865
1259.675,349.0,3.864
1260.27,349.5,3.864
1260.87,350.0,3.863
1261.482,350.5,3.863
1262.095,351.0,3.862
1262.695,351.5,3.862
1263.3,352.0,3.862
1263.91,352.5,3.861
1264.515,353.0,3.86
1265.119,353.5,3.86
1265.721,354.0,3.859
1266.322,354.5,3.859
1266.922,355.0,3.858
1267.529,355.5,3.857
1268.135,356.0,3.857
1268.731,356.5,3.856
1269.331,357.0,3.856
1269.934,357.5,3.856
1270.537,358.0,3.855
1271.142,358.5,3.855
1271.754,359.0,3.854
1272.358,359.5,3.854
1272.956,360.0,3.853
1273.557,360.5,3.852
1274.16,361.0,3.852
1274.768,361.5,3.851
1275.374,362.0,3.851
1275.978,362.5,3.85
1276.581,363.0,3.849
1277.181,363.5,3.849
1277.778,364.0,3.848
1278.382,364.5,3.848
1278.99,365.0,3.847
1279.593,365.5,3.846
1280.197,366.0,3.846
1280.804,366.5,3.845
1281.406,367.0,3.845
1282.006,367.5,3.844
1282.608,368.0,3.844
1283.208,368.5,3.844
1283.802,369.0,3.843
1284.402,369.5,3.843
1285.006,370.0,3.842
1285.614,370.5,3.841
1286.219,371.0,3.841
1286.822,371.5,3.84
1287.418,372.0,3.84
1288.011,372.5,3.839
1288.628,373.0,3.838
1289.235,373.5,3.838
1289.826,374.0,3.838
1290.423,374.5,3.838
1291.022,375.0,3.837
1291.619,375.5,3.836
1292.22,376.0,3.836
1292.827,376.5,3.835
1293.427,377.0,3.835
1294.024,377.5,3.835
1294.623,378.0,3.834
1295.222,378.5,3.834
1295.823,379.0,3.833
1296.422,379.5,3.833
1297.019,380.0,3.833
1297.616,380.5,3.832
1298.214,381.0,3.832
1298.817,381.5,3.832
1299.413,382.0,3.832
1300.007,382.5,3.831
1300.614,383.0,3.831
1301.216,383.5,3.831
1301.809,384.0,3.83
1302.407,384.5,3.83
1303.008,385.0,3.83
1303.604,385.5,3.829
1304.204,386.0,3.829
1304.813,386.5,3.829
1305.413,387.0,3.829
1306.009,387.5,3.829
1306.596,388.0,3.828
1307.186,388.5,3.828
1307.781,389.0,3.828
1308.386,389.5,3.828
1308.996,390.0,3.828
1309.59,390.5,3.827
1310.184,391.0,3.827
1310.782,391.5,3.827
1311.383,392.0,3.827
1311.986,392.5,3.827
1312.586,393.0,3.826
1313.182,393.5,3.826
1313.768,394.0,3.826
1314.36,394.5,3.826
1314.957,395.0,3.826
1315.554,395.5,3.826
1316.155,396.0,3.826
1316.765,396.5,3.826
1317.362,397.0,3.826
1317.952,397.5,3.825
1318.546,398.0,3.825
1319.14,398.5,3.825
1319.731,399.0,3.825
1320.323,399.5,3.825
1320.917,400.0,3.825
1321.517,400.5,3.825
1322.118,401.0,3.825
1322.719,401.5,3.825
1323.32,402.0,3.825
1323.921,402.5,3.825
1324.518,403.0,3.824
1325.114,403.5,3.824
1325.71,404.0,3.824
1326.306,404.5,3.824
1326.901,405.0,3.824
1327.487,405.5,3.824
1328.073,406.0,3.824
1328.674,406.5,3.824
1329.273,407.0,3.824
1329.87,407.5,3.824
1330.467,408.0,3.824
1331.063,408.5,3.824
1331.657,409.0,3.824
1332.254,409.5,3.824
1332.856,410.0,3.824
1333.45,410.5,3.824
1334.043,411.0,3.824
1334.644,411.5,3.824
1335.24,412.0,3.824
1335.828,412.5,3.824
1336.419,413.0,3.824
1337.011,413.5,3.824
1337.605,414.0,3.824
1338.201,414.5,3.824
1338.801,415.0,3.824
1339.4,415.5,3.824
1339.999,416.0,3.824
1340.587,416.5,3.823
1341.18,417.0,3.823
1341.782,417.5,3.823
1342.376,418.0,3.823
1342.965,418.5,3.823
1343.567,419.0,3.823
1344.165,419.5,3.823
1344.75,420.0,3.823
1345.345,420.5,3.823
1345.948,421.0,3.823
1346.535,421.5,3.823
1347.122,422.0,3.823
1347.716,422.5,3.823
1348.312,423.0,3.823
1348.91,423.5,3.823
1349.499,424.0,3.823
1350.088,424.5,3.823
1350.681,425.0,3.823
1351.275,425.5,3.823
1351.871,426.0,3.823
1352.465,426.5,3.823
1353.058,427.0,3.823
1353.648,427.5,3.823
1354.24,428.0,3.823
1354.834,428.5,3.823
1355.424,429.0,3.823
1356.012,429.5,3.822
1356.606,430.0,3.822
1357.201,430.5,3.822
1357.798,431.0,3.822
1358.392,431.5,3.822
1358.983,432.0,3.822
1359.578,432.5,3.822
1360.169,433.0,3.822
1360.753,433.5,3.822
1361.34,434.0,3.822
1361.929,434.5,3.822
1362.525,435.0,3.822
1363.121,435.5,3.822
1363.712,436.0,3.822
1364.302,436.5,3.822
1364.891,437.0,3.822
1365.482,437.5,3.822
1366.075,438.0,3.822
1366.673,438.5,3.821
1367.263,439.0,3.821
1367.845,439.5,3.821
1368.434,440.0,3.821
1369.025,440.5,3.821
1369.614,441.0,3.821
1370.204,441.5,3.821
1370.796,442.0,3.821
1371.386,442.5,3.821
1371.975,443.0,3.821
1372.564,443.5,3.821
1373.155,444.0,3.821
1373.75,444.5,3.82
1374.342,445.0,3.82
1374.931,445.5,3.82
1375.516,446.0,3.82
1376.102,446.5,3.82
1376.698,447.0,3.82
1377.289,447.5,3.82
1377.877,448.0,3.82
1378.467,448.5,3.82
1379.057,449.0,3.82
1379.637,449.5,3.819
1380.224,450.0,3.819
1380.823,450.5,3.819
1381.409,451.0,3.819
1381.991,451.5,3.819
1382.589,452.0,3.819
1383.183,452.5,3.819
1383.768,453.0,3.819
1384.353,453.5,3.819
1384.938,454.0,3.818
1385.526,454.5,3.818
1386.114,455.0,3.818
1386.703,455.5,3.818
1387.293,456.0,3.818
1387.885,456.5,3.818
1388.476,457.0,3.818
1389.067,457.5,3.817
1389.652,458.0,3.817
1390.236,458.5,3.817
1390.816,459.0,3.817
1391.408,459.5,3.817
1392.004,460.0,3.816
1392.59,460.5,3.816
1393.177,461.0,3.816
1393.761,461.5,3.816
1394.346,462.0,3.816
1394.93,462.5,3.815
1395.52,463.0,3.815
1396.11,463.5,3.815
1396.693,464.0,3.815
1397.275,464.5,3.815
1397.854,465.0,3.814
1398.444,465.5,3.814
1399.037,466.0,3.814
1399.615,466.5,3.813
1400.199,467.0,3.813
1400.793,467.5,3.813
1401.38,468.0,3.813
1401.963,468.5,3.812
1402.548,469.0,3.812
1403.133,469.5,3.812
1403.717,470.0,3.811
1404.302,470.5,3.811
1404.889,471.0,3.811
1405.475,471.5,3.811
1406.061,472.0,3.81
1406.65,472.5,3.81
1407.238,473.0,3.81
1407.823,473.5,3.809
1408.407,474.0,3.809
1408.991,474.5,3.809
1409.577,475.0,3.808
1410.163,475.5,3.808
1410.75,476.0,3.807
1411.334,476.5,3.807
1411.915,477.0,3.807
1412.5,477.5,3.806
1413.085,478.0,3.806
1413.669,478.5,3.805
1414.254,479.0,3.805
1414.838,479.5,3.805
1415.419,480.0,3.805
1416.0,480.5,3.804
1416.587,481.0,3.803
1417.173,481.5,3.803
1417.757,482.0,3.802
1418.34,482.5,3.802
1418.923,483.0,3.801
1419.509,483.5,3.8
1420.096,484.0,3.8
1420.678,484.5,3.799
1421.261,485.0,3.799
1421.845,485.5,3.798
1422.433,486.0,3.798
1423.022,486.5,3.797
1423.608,487.0,3.796
1424.193,487.5,3.796
1424.774,488.0,3.795
1425.358,488.5,3.795
1425.944,489.0,3.794
1426.531,489.5,3.793
1427.117,490.0,3.793
1427.699,490.5,3.792
1428.279,491.0,3.791
1428.855,491.5,3.79
1429.437,492.0,3.79
1430.021,492.5,3.789
1430.612,493.0,3.788
1431.198,493.5,3.788
1431.778,494.0,3.786
1432.357,494.5,3.786
1432.937,495.0,3.785
1433.522,495.5,3.784
1434.109,496.0,3.784
1434.704,496.5,3.783
1435.292,497.0,3.782
1435.873,497.5,3.781
1436.453,498.0,3.78
1437.031,498.5,3.779
1437.611,499.0,3.778
1438.194,499.5,3.778
1438.782,500.0,3.776
1439.369,500.5,3.776
1439.955,501.0,3.775
1440.533,501.5,3.774
1441.11,502.0,3.773
1441.692,502.5,3.772
1442.272,503.0,3.771
1442.851,503.5,3.77
1443.441,504.0,3.769
1444.034,504.5,3.768
1444.613,505.0,3.767
1445.193,505.5,3.766
1445.773,506.0,3.764
1446.353,506.5,3.764
1446.934,507.0,3.763
1447.519,507.5,3.762
1448.104,508.0,3.761
1448.682,508.5,3.76
1449.263,509.0,3.758
1449.849,509.5,3.757
1450.434,510.0,3.756
1451.02,510.5,3.755
1451.598,511.0,3.754
1452.178,511.5,3.753
1452.762,512.0,3.752
1453.343,512.5,3.751
1453.923,513.0,3.75
1454.512,513.5,3.749
1455.1,514.0,3.748
1455.685,514.5,3.747
1456.267,515.0,3.745
1456.848,515.5,3.744
1457.432,516.0,3.743
1458.016,516.5,3.742
1458.596,517.0,3.741
1459.174,517.5,3.74
1459.75,518.0,3.738
1460.332,518.5,3.737
1460.918,519.0,3.736
1461.504,519.5,3.734
1462.091,520.0,3.733
1462.68,520.5,3.732
1463.267,521.0,3.73
1463.853,521.5,3.729
1464.431,522.0,3.728
1465.006,522.5,3.727
1465.597,523.0,3.726
1466.183,523.5,3.725
1466.757,524.0,3.723
1467.338,524.5,3.722
1467.924,525.0,3.72
1468.509,525.5,3.719
1469.093,526.0,3.718
1469.675,526.5,3.717
1470.258,527.0,3.715
1470.84,527.5,3.714
1471.421,528.0,3.713
1472.0,528.5,3.711
1472.582,529.0,3.71
1473.165,529.5,3.709
1473.748,530.0,3.707
1474.33,530.5,3.705
1474.911,531.0,3.704
1475.496,531.5,3.703
1476.082,532.0,3.701
1476.669,532.5,3.699
1477.252,533.0,3.697
1477.829,533.5,3.696
1478.414,534.0,3.695
1479.002,534.5,3.693
1479.582,535.0,3.691
1480.163,535.5,3.69
1480.747,536.0,3.688
1481.334,536.5,3.686
1481.921,537.0,3.684
1482.504,537.5,3.682
1483.086,538.0,3.681
1483.671,538.5,3.679
1484.256,539.0,3.677
1484.843,539.5,3.675
1485.429,540.0,3.674
1486.015,540.5,3.672
1486.592,541.0,3.67
1487.171,541.5,3.668
1487.756,542.0,3.666
1488.34,542.5,3.664
1488.922,543.0,3.662
1489.508,543.5,3.66
1490.094,544.0,3.659
1490.683,544.5,3.656
1491.27,545.0,3.654
1491.854,545.5,3.652
1492.442,546.0,3.65
1493.031,546.5,3.648
1493.608,547.0,3.646
1494.185,547.5,3.643
1494.765,548.0,3.641
1495.351,548.5,3.639
1495.943,549.0,3.636
1496.526,549.5,3.634
1497.108,550.0,3.632
1497.692,550.5,3.629
1498.276,551.0,3.627
1498.858,551.5,3.625
1499.44,552.0,3.622
1500.021,552.5,3.62
1500.609,553.0,3.618
1501.197,553.5,3.615
1501.782,554.0,3.612
1502.368,554.5,3.61
1502.954,555.0,3.607
1503.535,555.5,3.604
1504.117,556.0,3.602
1504.702,556.5,3.599
1505.289,557.0,3.597
1505.879,557.5,3.594
1506.464,558.0,3.591
1507.048,558.5,3.588
1507.633,559.0,3.585
1508.219,559.5,3.583
1508.804,560.0,3.58
1509.386,560.5,3.577
1509.965,561.0,3.574
1510.554,561.5,3.571
1511.144,562.0,3.568
1511.732,562.5,3.565
1512.318,563.0,3.562
1512.902,563.5,3.559
1513.488,564.0,3.556
1514.074,564.5,3.553
1514.657,565.0,3.55
1515.24,565.5,3.547
1515.821,566.0,3.543
1516.41,566.5,3.54
1517.004,567.0,3.537
1517.592,567.5,3.533
1518.18,568.0,3.53
1518.769,568.5,3.527
1519.355,569.0,3.524
1519.939,569.5,3.52
1520.525,570.0,3.517
1521.11,570.5,3.513
1521.689,571.0,3.51
1522.272,571.5,3.506
1522.858,572.0,3.503
1523.444,572.5,3.499
1524.031,573.0,3.495
1524.618,573.5,3.491
1525.208,574.0,3.488
1525.803,574.5,3.483
1526.387,575.0,3.48
1526.966,575.5,3.476
1527.555,576.0,3.472
1528.145,576.5,3.468
1528.738,577.0,3.464
1529.326,577.5,3.46
1529.91,578.0,3.457
1530.494,578.5,3.453
1531.079,579.0,3.448
1531.669,579.5,3.444
1532.258,580.0,3.439
1532.844,580.5,3.435
1533.432,581.0,3.431
1534.021,581.5,3.427
1534.614,582.0,3.423
1535.207,582.5,3.418
1535.799,583.0,3.414
1536.389,583.5,3.409
1536.979,584.0,3.404
1537.562,584.5,3.4
1538.145,585.0,3.396
1538.723,585.5,3.391
1539.311,586.0,3.387
1539.908,586.5,3.382
1540.492,587.0,3.377
1541.076,587.5,3.372
1541.67,588.0,3.368
1542.261,588.5,3.363
1542.847,589.0,3.357
1543.439,589.5,3.352
1544.033,590.0,3.348
1544.618,590.5,3.342
1545.204,591.0,3.337
1545.796,591.5,3.332
1546.381,592.0,3.327
1546.963,592.5,3.322
1547.558,593.0,3.316
1548.151,593.5,3.311
1548.733,594.0,3.305
1549.318,594.5,3.3
1549.905,595.0,3.295
1550.497,595.5,3.29
1551.089,596.0,3.284
1551.678,596.5,3.278
1552.268,597.0,3.273
1552.862,597.5,3.267
1553.453,598.0,3.261
1554.044,598.5,3.256
1554.633,599.0,3.25
1555.225,599.5,3.244
1555.824,600.0,3.238
1556.415,600.5,3.231
1557.004,601.0,3.225
1557.588,601.5,3.219
1558.172,602.0,3.213
1558.756,602.5,3.207
1559.349,603.0,3.201
1559.948,603.5,3.195
1560.543,604.0,3.188
1561.135,604.5,3.182
1561.723,605.0,3.175
1562.317,605.5,3.169
1562.917,606.0,3.162
1563.504,606.5,3.155
1564.089,607.0,3.148
1564.681,607.5,3.142
1565.274,608.0,3.135
1565.867,608.5,3.128
1566.456,609.0,3.121
1567.045,609.5,3.114
1567.64,610.0,3.107
1568.233,610.5,3.099
1568.823,611.0,3.092
1569.413,611.5,3.085
1570.002,612.0,3.078
1570.593,612.5,3.07
1571.186,613.0,3.063
1571.783,613.5,3.056
1572.376,614.0,3.048
1572.967,614.5,3.04
1573.563,615.0,3.033
1574.159,615.5,3.025
1574.75,616.0,3.016
1575.343,616.5,3.009
1575.937,617.0,3.001
1576.533,617.5,2.993
1577.128,618.0,2.984
1577.719,618.5,2.976
1578.31,619.0,2.968
1578.903,619.5,2.959
1579.498,620.0,2.951
1580.093,620.5,2.943
1580.687,621.0,2.934
1581.281,621.5,2.925
1581.874,622.0,2.917
1582.467,622.5,2.908
1583.059,623.0,2.899
1583.652,623.5,2.89
1584.245,624.0,2.881
1584.838,624.5,2.872
1585.432,625.0,2.864
1586.026,625.5,2.855
1586.624,626.0,2.845
1587.221,626.5,2.835
1587.818,627.0,2.826
1588.411,627.5,2.816
1589.001,628.0,2.807
1589.599,628.5,2.797
1590.197,629.0,2.788
1590.798,629.5,2.778
1591.391,630.0,2.769
1591.98,630.5,2.759
1592.58,631.0,2.749
1593.177,631.5,2.739
1593.767,632.0,2.729
1594.363,632.5,2.719
1594.964,633.0,2.71
1595.558,633.5,2.699
1596.152,634.0,2.688
1596.751,634.5,2.678
1597.348,635.0,2.668
1597.944,635.5,2.658
1598.541,636.0,2.647
1599.138,636.5,2.637
1599.737,637.0,2.626
1600.335,637.5,2.615
1600.932,638.0,2.604
1601.526,638.5,2.594
1602.12,639.0,2.583
1602.714,639.5,2.572
1603.314,640.0,2.561
1603.92,640.5,2.55
1604.517,641.0,2.539
1605.114,641.5,2.528
1605.715,642.0,2.517
1606.313,642.5,2.506
1606.908,643.0,2.495
1607.511,643.5,2.483
1608.114,644.0,2.472
1608.717,644.5,2.46
1609.318,645.0,2.449
1609.918,645.5,2.438
1610.517,646.0,2.426
1611.114,646.5,2.414
1611.71,647.0,2.403
1612.305,647.5,2.391
1612.902,648.0,2.379
1613.503,648.5,2.367
1614.104,649.0,2.355
1614.7,649.5,2.343
1615.3,650.0,2.331
1615.901,650.5,2.319
1616.504,651.0,2.306
1617.106,651.5,2.294
1617.705,652.0,2.281
1618.304,652.5,2.269
1618.906,653.0,2.257
1619.507,653.5,2.244
1620.107,654.0,2.231
1620.711,654.5,2.218
1621.314,655.0,2.205
1621.916,655.5,2.192
1622.513,656.0,2.179
1623.11,656.5,2.166
1623.712,657.0,2.153
1624.316,657.5,2.139
1624.921,658.0,2.126
1625.529,658.5,2.112
1626.136,659.0,2.098
1626.737,659.5,2.085
1627.34,660.0,2.071
1627.946,660.5,2.056
1628.55,661.0,2.042
1629.154,661.5,2.027
1629.762,662.0,2.013
1630.366,662.5,1.999
1630.969,663.0,1.985
1631.572,663.5,1.97
1632.176,664.0,1.955
1632.779,664.5,1.94
1633.388,665.0,1.924
1633.999,665.5,1.909
1634.596,666.0,1.893
1635.199,666.5,1.878
1635.813,667.0,1.862
1636.422,667.5,1.846
1637.028,668.0,1.83
1637.629,668.5,1.814
1638.23,669.0,1.798
1638.833,669.5,1.782
1639.438,670.0,1.766
1640.044,670.5,1.749
1640.658,671.0,1.732
1641.265,671.5,1.716
1641.861,672.0,1.699
1642.464,672.5,1.682
1643.069,673.0,1.665
1643.675,673.5,1.648
1644.282,674.0,1.631
1644.888,674.5,1.613
1645.492,675.0,1.596
1646.096,675.5,1.579
1646.7,676.0,1.562
1647.304,676.5,1.544
1647.906,677.0,1.528
1648.509,677.5,1.51
1649.112,678.0,1.493
1649.711,678.5,1.475
1650.309,679.0,1.458
1650.906,679.5,1.442
1651.504,680.0,1.425
1652.104,680.5,1.408
1652.706,681.0,1.391
1653.307,681.5,1.374
1653.906,682.0,1.358
1654.507,682.5,1.341
1655.107,683.0,1.325
1655.708,683.5,1.31
1656.304,684.0,1.294
1656.896,684.5,1.279
1657.495,685.0,1.263
1658.096,685.5,1.248
1658.695,686.0,1.233
1659.289,686.5,1.218
1659.88,687.0,1.205
1660.478,687.5,1.191
1661.077,688.0,1.178
1661.669,688.5,1.165
1662.261,689.0,1.153
1662.855,689.5,1.14
1663.449,690.0,1.129
1664.043,690.5,1.118
1664.637,691.0,1.107
1665.234,691.5,1.096
1665.834,692.0,1.087
1666.431,692.5,1.077
1667.027,693.0,1.068
1667.617,693.5,1.06
1668.211,694.0,1.052
1668.81,694.5,1.045
1669.403,695.0,1.038
1669.994,695.5,1.031
1670.594,696.0,1.024
1671.192,696.5,1.017
1671.79,697.0,1.013
1672.389,697.5,1.007
1672.989,698.0,1.002
1673.588,698.5,0.997
1674.188,699.0,0.993
1674.788,699.5,0.989
1675.389,700.0,0.986
1675.989,700.5,0.982
1676.582,701.0,0.979
1677.176,701.5,0.976
1677.776,702.0,0.972
1678.372,702.5,0.969
1678.966,703.0,0.966
1679.565,703.5,0.964
1680.166,704.0,0.961
1680.766,704.5,0.959
1681.37,705.0,0.957
1681.977,705.5,0.954
1682.571,706.0,0.952
1683.167,706.5,0.95
1683.77,707.0,0.949
1684.373,707.5,0.947
1684.977,708.0,0.945
1685.581,708.5,0.943
1686.183,709.0,0.941
1686.78,709.5,0.94
1687.384,710.0,0.938
1687.993,710.5,0.936
1688.593,711.0,0.934
1689.194,711.5,0.933
1689.797,712.0,0.931
1690.393,712.5,0.93
1690.986,713.0,0.928
1691.587,713.5,0.927
1692.191,714.0,0.925
1692.798,714.5,0.924
1693.403,715.0,0.922
1694.007,715.5,0.921
1694.61,716.0,0.919
1695.213,716.5,0.918
1695.814,717.0,0.916
1696.418,717.5,0.915
1697.023,718.0,0.914
1697.624,718.5,0.912
1698.224,719.0,0.911
1698.825,719.5,0.909
1699.43,720.0,0.908
1700.036,720.5,0.907
1700.636,721.0,0.906
1701.238,721.5,0.904
1701.844,722.0,0.902
1702.444,722.5,0.901
1703.043,723.0,0.9
1703.647,723.5,0.899
1704.252,724.0,0.897
1704.857,724.5,0.896
1705.464,725.0,0.895
1706.071,725.5,0.894
1706.669,726.0,0.893
1707.274,726.5,0.891
1707.887,727.0,0.89
1708.486,727.5,0.889
1709.083,728.0,0.888
1709.688,728.5,0.886
1710.292,729.0,0.884
1710.894,729.5,0.883
1711.493,730.0,0.882
1712.094,730.5,0.881
1712.704,731.0,0.88
1713.31,731.5,0.878
1713.912,732.0,0.877
1714.514,732.5,0.876
1715.116,733.0,0.875
1715.722,733.5,0.874
1716.328,734.0,0.873
1716.935,734.5,0.872
1717.535,735.0,0.871
1718.137,735.5,0.87
1718.746,736.0,0.869
1719.349,736.5,0.867
1719.95,737.0,0.866
1720.559,737.5,0.865
1721.167,738.0,0.864
1721.773,738.5,0.862
1722.378,739.0,0.861
1722.981,739.5,0.86
1723.58,740.0,0.859
1724.183,740.5,0.858
1724.792,741.0,0.856
1725.397,741.5,0.856
1726.0,742.0,0.855
1726.599,742.5,0.854
1727.204,743.0,0.853
1727.821,743.5,0.851
1728.425,744.0,0.85
1729.023,744.5,0.849
1729.631,745.0,0.848
1730.235,745.5,0.847
1730.836,746.0,0.846
1731.437,746.5,0.845
1732.039,747.0,0.844
1732.648,747.5,0.843
1733.254,748.0,0.842
1733.856,748.5,0.841
1734.461,749.0,0.84
1735.069,749.5,0.839
1735.682,750.0,0.838
1736.291,750.5,0.837
1736.894,751.0,0.836
1737.498,751.5,0.835
1738.101,752.0,0.834
1738.701,752.5,0.833
1739.305,753.0,0.832
1739.911,753.5,0.831
1740.516,754.0,0.83
1741.12,754.5,0.829
1741.725,755.0,0.828
1742.332,755.5,0.827
1742.94,756.0,0.826
1743.545,756.5,0.825
1744.149,757.0,0.825
1744.749,757.5,0.824
1745.354,758.0,0.823
1745.963,758.5,0.822
1746.574,759.0,0.821
1747.183,759.5,0.82
1747.791,760.0,0.819
1748.392,760.5,0.818
1748.99,761.0,0.817
1749.6,761.5,0.816
1750.207,762.0,0.816
1750.811,762.5,0.815
1751.417,763.0,0.814
1752.025,763.5,0.813
1752.629,764.0,0.812
1753.235,764.5,0.812
1753.844,765.0,0.81
1754.447,765.5,0.81
1755.048,766.0,0.809
1755.646,766.5,0.808
1756.249,767.0,0.808
1756.861,767.5,0.806
1757.468,768.0,0.806
1758.075,768.5,0.805
1758.681,769.0,0.804
1759.285,769.5,0.804
1759.885,770.0,0.803
1760.493,770.5,0.802
1761.102,771.0,0.801
1761.708,771.5,0.8
1762.312,772.0,0.8
1762.914,772.5,0.799
1763.513,773.0,0.798
1764.113,773.5,0.798
1764.723,774.0,0.797
1765.327,774.5,0.796
1765.926,775.0,0.795
1766.522,775.5,0.794
1767.12,776.0,0.794
1767.725,776.5,0.793
1768.333,777.0,0.793
1768.942,777.5,0.792
1769.545,778.0,0.791
1770.149,778.5,0.791
1770.756,779.0,0.79
1771.362,779.5,0.789
1771.966,780.0,0.788
1772.561,780.5,0.787
1773.158,781.0,0.787
1773.759,781.5,0.786
1774.367,782.0,0.786
1774.979,782.5,0.785
1775.574,783.0,0.784
1776.173,783.5,0.784
1776.782,784.0,0.783
1777.385,784.5,0.783
1777.984,785.0,0.782
1778.587,785.5,0.781
1779.188,786.0,0.781
1779.789,786.5,0.78
1780.388,787.0,0.78
1780.986,787.5,0.779
1781.583,788.0,0.778
1782.184,788.5,0.778
1782.792,789.0,0.777
1783.391,789.5,0.777
1783.986,790.0,0.776
1784.583,790.5,0.775
1785.182,791.0,0.775
1785.785,791.5,0.773
1786.383,792.0,0.773
1786.979,792.5,0.772
1787.574,793.0,0.771
1788.172,793.5,0.771
1788.776,794.0,0.77
1789.376,794.5,0.77
1789.973,795.0,0.769
1790.567,795.5,0.768
1791.162,796.0,0.768
1791.755,796.5,0.767
1792.35,797.0,0.767
1792.945,797.5,0.766
1793.535,798.0,0.765
1794.13,798.5,0.765
1794.744,799.0,0.764
1795.344,799.5,0.764
1795.934,800.0,0.764
1796.534,800.5,0.763
1797.134,801.0,0.763
1797.727,801.5,0.762
1798.323,802.0,0.762
1798.921,802.5,0.761
1799.512,803.0,0.76
1800.103,803.5,0.76
1800.703,804.0,0.759
1801.299,804.5,0.759
1801.892,805.0,0.758
1802.486,805.5,0.758
1803.081,806.0,0.757
1803.676,806.5,0.756
1804.271,807.0,0.756
1804.865,807.5,0.755
1805.461,808.0,0.755
1806.058,808.5,0.754
1806.653,809.0,0.753
1807.246,809.5,0.753
1807.837,810.0,0.752
1808.431,810.5,0.752
1809.027,811.0,0.751
1809.622,811.5,0.75
1810.219,812.0,0.75
1810.822,812.5,0.749
1811.416,813.0,0.749
1812.007,813.5,0.748
1812.6,814.0,0.748
1813.191,814.5,0.748
1813.779,815.0,0.747
1814.372,815.5,0.747
1814.968,816.0,0.746
1815.564,816.5,0.745
1816.16,817.0,0.745
1816.754,817.5,0.744
1817.348,818.0,0.744
1817.943,818.5,0.743
1818.536,819.0,0.742
1819.129,819.5,0.742
1819.722,820.0,0.741
1820.313,820.5,0.741
1820.904,821.0,0.74
1821.499,821.5,0.74
1822.095,822.0,0.74
1822.691,822.5,0.739
1823.287,823.0,0.739
1823.881,823.5,0.738
1824.479,824.0,0.738
1825.077,824.5,0.737
1825.67,825.0,0.736
1826.266,825.5,0.736
1826.864,826.0,0.735
1827.455,826.5,0.735
1828.044,827.0,0.735
1828.634,827.5,0.734
1829.23,828.0,0.734
1829.834,828.5,0.733
1830.434,829.0,0.733
1831.032,829.5,0.732
1831.619,830.0,0.731
1832.209,830.5,0.731
1832.805,831.0,0.73
1833.4,831.5,0.73
1833.994,832.0,0.73
1834.589,832.5,0.729
1835.186,833.0,0.729
1835.786,833.5,0.728
1836.384,834.0,0.728
1836.981,834.5,0.727
1837.58,835.0,0.726
1838.179,835.5,0.726
1838.776,836.0,0.726
1839.38,836.5,0.726
1839.989,837.0,0.725
1840.587,837.5,0.724
1841.184,838.0,0.724
1841.779,838.5,0.723
1842.372,839.0,0.723
1842.963,839.5,0.723
1843.562,840.0,0.722
1844.161,840.5,0.722
1844.76,841.0,0.721
1845.356,841.5,0.721
1845.951,842.0,0.72
1846.549,842.5,0.719
1847.147,843.0,0.719
1847.745,843.5,0.719
1848.342,844.0,0.719
1848.939,844.5,0.718
1849.541,845.0,0.717
1850.141,845.5,0.717
1850.733,846.0,0.716
1851.33,846.5,0.716
1851.931,847.0,0.716
1852.529,847.5,0.715
1853.127,848.0,0.715
1853.732,848.5,0.714
1854.333,849.0,0.714
1854.933,849.5,0.713
1855.526,850.0,0.713
1856.121,850.5,0.713
1856.725,851.0,0.712
1857.325,851.5,0.712
1857.923,852.0,0.711
1858.521,852.5,0.711
1859.12,853.0,0.711
1859.724,853.5,0.71
1860.325,854.0,0.71
1860.923,854.5,0.709
1861.522,855.0,0.709
1862.12,855.5,0.709
1862.716,856.0,0.708
1863.317,856.5,0.708
1863.923,857.0,0.707
1864.523,857.5,0.707
1865.124,858.0,0.707
1865.724,858.5,0.706
1866.323,859.0,0.706
1866.922,859.5,0.705
1867.521,860.0,0.705
1868.12,860.5,0.705
1868.72,861.0,0.704
1869.321,861.5,0.704
1869.921,862.0,0.703
1870.517,862.5,0.703
1871.114,863.0,0.703
1871.723,863.5,0.702
1872.329,864.0,0.702
1872.932,864.5,0.701
1873.531,865.0,0.701
1874.128,865.5,0.701
1874.722,866.0,0.7
1875.322,866.5,0.7
1875.928,867.0,0.699
1876.528,867.5,0.699
1877.128,868.0,0.699
1877.729,868.5,0.698
1878.33,869.0,0.698
1878.929,869.5,0.698
1879.529,870.0,0.697
1880.131,870.5,0.697
1880.735,871.0,0.696
1881.34,871.5,0.696
1881.946,872.0,0.696
1882.548,872.5,0.695
1883.15,873.0,0.695
1883.751,873.5,0.694
1884.351,874.0,0.694
1884.95,874.5,0.694
1885.553,875.0,0.693
1886.158,875.5,0.693
1886.765,876.0,0.693
1887.367,876.5,0.693
1887.964,877.0,0.692
1888.565,877.5,0.691
1889.167,878.0,0.691
1889.771,878.5,0.691
1890.372,879.0,0.691
1890.971,879.5,0.69
1891.573,880.0,0.69
1892.177,880.5,0.69
1892.781,881.0,0.689
1893.383,881.5,0.689
1893.984,882.0,0.688
1894.585,882.5,0.688
1895.187,883.0,0.688
1895.79,883.5,0.687
1896.393,884.0,0.687
1896.995,884.5,0.687
1897.6,885.0,0.686
1898.203,885.5,0.686
1898.803,886.0,0.686
1899.406,886.5,0.686
1900.011,887.0,0.685
1900.616,887.5,0.684
1901.219,888.0,0.684
1901.817,888.5,0.684
1902.418,889.0,0.684
1903.019,889.5,0.683
1903.622,890.0,0.683
1904.227,890.5,0.683
1904.835,891.0,0.682
1905.44,891.5,0.682
1906.043,892.0,0.682
1906.642,892.5,0.681
1907.246,893.0,0.681
1907.857,893.5,0.681
1908.462,894.0,0.681
1909.064,894.5,0.68
1909.66,895.0,0.68
1910.261,895.5,0.68
1910.871,896.0,0.679
1911.477,896.5,0.679
1912.082,897.0,0.678
1912.681,897.5,0.678
1913.28,898.0,0.678
1913.879,898.5,0.677
1914.478,899.0,0.677
1915.079,899.5,0.677
1915.686,900.0,0.676
1916.291,900.5,0.676
1916.895,901.0,0.676
1917.501,901.5,0.675
1918.106,902.0,0.675
1918.707,902.5,0.675
1919.308,903.0,0.675
1919.909,903.5,0.674
1920.512,904.0,0.674
1921.117,904.5,0.674
1921.726,905.0,0.673
1922.329,905.5,0.673
1922.927,906.0,0.673
1923.53,906.5,0.672
1924.134,907.0,0.672
1924.737,907.5,0.672
1925.345,908.0,0.672
1925.957,908.5,0.671
1926.558,909.0,0.671
1927.158,909.5,0.671
1927.763,910.0,0.67
1928.369,910.5,0.67
1928.977,911.0,0.67
1929.58,911.5,0.67
1930.181,912.0,0.67
1930.782,912.5,0.669
1931.386,913.0,0.669
1931.992,913.5,0.669
1932.592,914.0,0.668
1933.193,914.5,0.668
1933.798,915.0,0.668
1934.406,915.5,0.668
1935.014,916.0,0.667
1935.614,916.5,0.667
1936.216,917.0,0.667
1936.823,917.5,0.666
1937.429,918.0,0.666
1938.034,918.5,0.666
1938.637,919.0,0.665
1939.239,919.5,0.665
1939.838,920.0,0.665
1940.443,920.5,0.665
1941.049,921.0,0.664
1941.648,921.5,0.664
1942.247,922.0,0.664
1942.848,922.5,0.663
1943.449,923.0,0.663
1944.052,923.5,0.663
1944.659,924.0,0.663
1945.265,924.5,0.663
1945.872,925.0,0.662
1946.474,925.5,0.662
1947.076,926.0,0.662
1947.685,926.5,0.661
1948.289,927.0,0.661
1948.89,927.5,0.661
1949.491,928.0,0.661
1950.093,928.5,0.66
1950.698,929.0,0.66
1951.3,929.5,0.66
1951.899,930.0,0.66
1952.504,930.5,0.659
1953.109,931.0,0.659
1953.714,931.5,0.659
1954.32,932.0,0.659
1954.925,932.5,0.658
1955.522,933.0,0.658
1956.119,933.5,0.658
1956.719,934.0,0.657
1957.325,934.5,0.657
1957.935,935.0,0.657
1958.542,935.5,0.657
1959.146,936.0,0.657
1959.747,936.5,0.656
1960.348,937.0,0.656
1960.951,937.5,0.656
1961.556,938.0,0.655
1962.161,938.5,0.655
1962.767,939.0,0.655
1963.373,939.5,0.655
1963.979,940.0,0.654
1964.574,940.5,0.654
1965.172,941.0,0.654
1965.779,941.5,0.654
1966.386,942.0,0.654
1966.994,942.5,0.653
1967.596,943.0,0.653
1968.2,943.5,0.653
1968.806,944.0,0.652
1969.407,944.5,0.652
1970.005,945.0,0.652
1970.608,945.5,0.652
1971.213,946.0,0.652
1971.82,946.5,0.651
1972.428,947.0,0.651
1973.035,947.5,0.651
1973.636,948.0,0.65
1974.237,948.5,0.65
1974.84,949.0,0.65
1975.448,949.5,0.65
1976.058,950.0,0.65
1976.662,950.5,0.649
1977.267,951.0,0.649
1977.874,951.5,0.649
1978.478,952.0,0.649
1979.082,952.5,0.648
1979.688,953.0,0.648
1980.29,953.5,0.648
1980.889,954.0,0.648
1981.499,954.5,0.648
1982.109,955.0,0.647
1982.705,955.5,0.647
1983.306,956.0,0.647
1983.909,956.5,0.646
1984.514,957.0,0.646
1985.118,957.5,0.646
1985.72,958.0,0.646
1986.326,958.5,0.646
1986.935,959.0,0.645
1987.537,959.5,0.645
1988.14,960.0,0.645
1988.751,960.5,0.644
1989.355,961.0,0.644
1989.954,961.5,0.644
1990.563,962.0,0.644
1991.173,962.5,0.644
1991.78,963.0,0.643
1992.385,963.5,0.643
1992.989,964.0,0.643
1993.597,964.5,0.643
1994.202,965.0,0.643
1994.804,965.5,0.642
1995.407,966.0,0.642
1996.011,966.5,0.642
1996.616,967.0,0.642
1997.222,967.5,0.642
1997.829,968.0,0.641
1998.436,968.5,0.641
1999.043,969.0,0.641
1999.651,969.5,0.641
2000.258,970.0,0.641
2000.865,970.5,0.64
2001.475,971.0,0.64
2002.084,971.5,0.64
2002.684,972.0,0.639
2003.286,972.5,0.639
2003.889,973.0,0.639
2004.494,973.5,0.639
2005.1,974.0,0.639
2005.712,974.5,0.638
2006.322,975.0,0.638
2006.928,975.5,0.638
2007.533,976.0,0.638
2008.137,976.5,0.638
2008.737,977.0,0.637
2009.345,977.5,0.637
2009.959,978.0,0.637
2010.567,978.5,0.637
2011.176,979.0,0.637
2011.787,979.5,0.636
2012.391,980.0,0.636
2012.992,980.5,0.636
2013.596,981.0,0.636
2014.202,981.5,0.636
2014.81,982.0,0.635
2015.42,982.5,0.635
2016.029,983.0,0.635
2016.64,983.5,0.635
2017.246,984.0,0.635
2017.847,984.5,0.634
2018.451,985.0,0.634
2019.056,985.5,0.634
2019.661,986.0,0.634
2020.267,986.5,0.634
2020.874,987.0,0.634
2021.484,987.5,0.634
2022.094,988.0,0.633
2022.697,988.5,0.633
2023.304,989.0,0.633
2023.915,989.5,0.633
2024.519,990.0,0.632
2025.122,990.5,0.632
2025.724,991.0,0.632
2026.33,991.5,0.632
2026.939,992.0,0.632
2027.543,992.5,0.632
2028.146,993.0,0.632
2028.75,993.5,0.631
2029.355,994.0,0.631
2029.96,994.5,0.631
2030.57,995.0,0.631
2031.178,995.5,0.631
2031.783,996.0,0.63
2032.388,996.5,0.63
2032.992,997.0,0.63
2033.599,997.5,0.63
2034.207,998.0,0.63
2034.815,998.5,0.63
2035.416,999.0,0.63
2036.014,999.5,0.629
2036.616,1000.0,0.629
2037.22,1000.5,0.629
2037.828,1001.0,0.629
2038.436,1001.5,0.629
2039.042,1002.0,0.629
2039.648,1002.5,0.628
2040.255,1003.0,0.628
2040.866,1003.5,0.628
2041.473,1004.0,0.628
2042.079,1004.5,0.628
2042.679,1005.0,0.627
2043.28,1005.5,0.627
2043.884,1006.0,0.627
2044.491,1006.5,0.627
2045.098,1007.0,0.627
2045.705,1007.5,0.627
2046.312,1008.0,0.627
2046.92,1008.5,0.626
2047.52,1009.0,0.626
2048.122,1009.5,0.626
2048.729,1010.0,0.626
2049.331,1010.5,0.626
2049.928,1011.0,0.626
2050.534,1011.5,0.625
2051.139,1012.0,0.625
2051.736,1012.5,0.625
2052.338,1013.0,0.625
2052.944,1013.5,0.625
2053.55,1014.0,0.625
2054.155,1014.5,0.625
2054.762,1015.0,0.624
2055.368,1015.5,0.624
2055.972,1016.0,0.624
2056.572,1016.5,0.624
2057.171,1017.0,0.624
2057.769,1017.5,0.624
2058.373,1018.0,0.624
2058.982,1018.5,0.623
2059.585,1019.0,0.623
2060.189,1019.5,0.623
2060.795,1020.0,0.623
2061.399,1020.5,0.623
2062.001,1021.0,0.623
2062.602,1021.5,0.623
2063.205,1022.0,0.623
2063.812,1022.5,0.622
2064.415,1023.0,0.622
2065.017,1023.5,0.622
2065.623,1024.0,0.622
2066.227,1024.5,0.622
2066.829,1025.0,0.622
2067.429,1025.5,0.622
2068.028,1026.0,0.621
2068.632,1026.5,0.621
2069.235,1027.0,0.621
2069.834,1027.5,0.621
2070.438,1028.0,0.621
2071.044,1028.5,0.621
2071.649,1029.0,0.621
2072.254,1029.5,0.621
2072.859,1030.0,0.62
2073.463,1030.5,0.62
2074.066,1031.0,0.62
2074.664,1031.5,0.62
2075.262,1032.0,0.62
2075.861,1032.5,0.62
2076.468,1033.0,0.62
2077.077,1033.5,0.619
2077.678,1034.0,0.619
2078.282,1034.5,0.619
2078.888,1035.0,0.619
2079.492,1035.5,0.619
2080.094,1036.0,0.619
2080.695,1036.5,0.619
2081.297,1037.0,0.619
2081.901,1037.5,0.618
2082.505,1038.0,0.618
2083.108,1038.5,0.618
2083.711,1039.0,0.618
2084.314,1039.5,0.618
2084.918,1040.0,0.618
2085.519,1040.5,0.617
2086.119,1041.0,0.617
2086.722,1041.5,0.617
2087.323,1042.0,0.617
2087.922,1042.5,0.617
2088.529,1043.0,0.617
2089.136,1043.5,0.617
2089.739,1044.0,0.616
2090.343,1044.5,0.616
2090.947,1045.0,0.616
2091.54,1045.5,0.616
2092.134,1046.0,0.616
2092.737,1046.5,0.616
2093.343,1047.0,0.616
2093.95,1047.5,0.616
2094.545,1048.0,0.615
2095.141,1048.5,0.615
2095.745,1049.0,0.615
2096.349,1049.5,0.615
2096.952,1050.0,0.615
2097.56,1050.5,0.615
2098.165,1051.0,0.615
2098.762,1051.5,0.614
2099.361,1052.0,0.614
2099.96,1052.5,0.614
2100.559,1053.0,0.614
2101.158,1053.5,0.614
2101.762,1054.0,0.614
2102.366,1054.5,0.614
2102.971,1055.0,0.614
2103.501,1055.5,0.613
2104.073,1056.0,0.613
2105.514,1056.5,0.613
2106.705,1057.0,0.613
2107.681,1057.5,0.612
2108.63,1058.0,0.612
2109.614,1058.5,0.612
2110.64,1059.0,0.612
2111.714,1059.5,0.612
2112.844,1060.0,0.611
2114.039,1060.5,0.611
2115.26,1061.0,0.611
2116.562,1061.5,0.61
2117.957,1062.0,0.61
2119.441,1062.5,0.61
2120.99,1063.0,0.61
2124.0,1063.863,0.609
2134.0,1066.095,0.608
2144.0,1067.601,0.607
2154.0,1068.637,0.605
2164.0,1069.353,0.604
2174.0,1069.868,0.603
2184.0,1070.248,0.602
2194.0,1070.532,0.602
2204.0,1070.753,0.601
2214.0,1070.924,0.6
2224.0,1071.07,0.599
2234.0,1071.179,0.598
2244.0,1071.282,0.598
2254.0,1071.379,0.597
2264.0,1071.443,0.596
2274.0,1071.51,0.596
2284.0,1071.569,0.595
2294.0,1071.609,0.594
2304.0,1071.66,0.594
2314.0,1071.692,0.593
2324.0,1071.728,0.593
2334.0,1071.753,0.592
2344.0,1071.78,0.592
2354.0,1071.798,0.591
2364.0,1071.81,0.591
2374.0,1071.832,0.59
2384.0,1071.838,0.59
2394.0,1071.858,0.59
2404.0,1071.863,0.589
2414.0,1071.862,0.589
2424.0,1071.875,0.588
