Time (s),Temperature (K),Mass (mg)
0.0,305.002,1.02
4.0,304.986,1.019
12.0,304.946,1.018
21.0,304.901,1.017
30.0,304.881,1.016
41.0,304.826,1.015
52.0,304.804,1.014
65.0,304.768,1.013
81.0,304.734,1.012
93.0,304.7,1.011
113.0,304.677,1.01
138.0,304.613,1.009
160.0,304.62,1.008
199.0,304.557,1.007
238.0,304.517,1.006
291.0,304.479,1.005
351.0,304.461,1.004
459.0,304.416,1.003
709.0,304.445,1.002
985.0,304.432,1.001
994.0,304.432,1.002
1020.0,304.456,1.001
1037.0,304.436,1.002
1120.0,304.436,1.001
1151.0,304.424,1.002
1163.0,304.446,1.001
1170.0,304.458,1.002
1185.0,304.437,1.001
1203.83,305.0,1.0
1205.305,305.5,0.999
1206.299,306.0,0.999
1207.186,306.5,0.999
1208.045,307.0,0.999
1208.915,307.5,0.999
1209.749,308.0,0.999
1210.507,308.5,1.0
1211.222,309.0,1.0
1211.915,309.5,1.0
1212.568,310.0,1.001
1213.209,310.5,1.001
1213.837,311.0,1.002
1214.453,311.5,1.002
1215.067,312.0,1.002
1215.686,312.5,1.003
1216.293,313.0,1.003
1216.887,313.5,1.003
1217.498,314.0,1.003
1218.108,314.5,1.003
1218.7,315.0,1.004
1219.29,315.5,1.004
1219.876,316.0,1.003
1220.462,316.5,1.003
1221.048,317.0,1.003
1221.636,317.5,1.003
1222.221,318.0,1.003
1222.804,318.5,1.003
1223.385,319.0,1.003
1223.965,319.5,1.003
1224.558,320.0,1.003
1225.148,320.5,1.003
1225.725,321.0,1.003
1226.303,321.5,1.003
1226.881,322.0,1.002
1227.465,322.5,1.002
1228.052,323.0,1.002
1228.639,323.5,1.002
1229.228,324.0,1.002
1229.818,324.5,1.001
1230.393,325.0,1.001
1230.961,325.5,1.001
1231.557,326.0,1.001
1232.15,326.5,1.001
1232.732,327.0,1.0
1233.322,327.5,1.0
1233.919,328.0,1.0
1234.502,328.5,1.0
1235.082,329.0,1.0
1235.656,329.5,1.0
1236.237,330.0,1.0
1236.829,330.5,0.999
1237.423,331.0,0.999
1238.016,331.5,0.999
1238.603,332.0,0.999
1239.189,332.5,0.999
1239.777,333.0,0.999
1240.373,333.5,0.999
1240.974,334.0,0.999
1241.555,334.5,0.998
1242.138,335.0,0.998
1242.73,335.5,0.998
1243.322,336.0,0.998
1243.914,336.5,0.998
1244.509,337.0,0.998
1245.102,337.5,0.998
1245.682,338.0,0.998
1246.27,338.5,0.998
1246.867,339.0,0.997
1247.457,339.5,0.997
1248.044,340.0,0.997
1248.64,340.5,0.997
1249.233,341.0,0.997
1249.82,341.5,0.997
1250.418,342.0,0.997
1251.02,342.5,0.997
1251.617,343.0,0.997
1252.212,343.5,0.997
1252.805,344.0,0.996
1253.396,344.5,0.996
1253.988,345.0,0.996
1254.573,345.5,0.996
1255.162,346.0,0.996
1255.763,346.5,0.996
1256.362,347.0,0.996
1256.961,347.5,0.995
1257.557,348.0,0.995
1258.152,348.5,0.995
1258.741,349.0,0.995
1259.333,349.5,0.995
1259.929,350.0,0.995
1260.531,350.5,0.995
1261.133,351.0,0.995
1261.731,351.5,0.994
1262.328,352.0,0.994
1262.924,352.5,0.994
1263.518,353.0,0.994
1264.114,353.5,0.994
1264.712,354.0,0.994
1265.312,354.5,0.994
1265.914,355.0,0.993
1266.502,355.5,0.993
1267.089,356.0,0.993
1267.688,356.5,0.993
1268.288,357.0,0.993
1268.889,357.5,0.993
1269.487,358.0,0.993
1270.083,358.5,0.993
1270.672,359.0,0.992
1271.262,359.5,0.992
1271.853,360.0,0.992
1272.454,360.5,0.992
1273.057,361.0,0.992
1273.663,361.5,0.992
1274.263,362.0,0.992
1274.856,362.5,0.992
1275.447,363.0,0.992
1276.037,363.5,0.992
1276.636,364.0,0.991
1277.236,364.5,0.991
1277.837,365.0,0.991
1278.439,365.5,0.991
1279.04,366.0,0.991
1279.635,366.5,0.991
1280.23,367.0,0.991
1280.825,367.5,0.991
1281.422,368.0,0.991
1282.019,368.5,0.991
1282.622,369.0,0.991
1283.221,369.5,0.991
1283.817,370.0,0.991
1284.412,370.5,0.991
1285.008,371.0,0.99
1285.601,371.5,0.99
1286.196,372.0,0.99
1286.798,372.5,0.99
1287.391,373.0,0.99
1287.979,373.5,0.99
1288.577,374.0,0.99
1289.176,374.5,0.99
1289.776,375.0,0.99
1290.376,375.5,0.99
1290.977,376.0,0.99
1291.575,376.5,0.99
1292.174,377.0,0.99
1292.772,377.5,0.99
1293.37,378.0,0.99
1293.967,378.5,0.99
1294.575,379.0,0.989
1295.179,379.5,0.989
1295.77,380.0,0.989
1296.363,380.5,0.989
1296.957,381.0,0.989
1297.554,381.5,0.989
1298.15,382.0,0.989
1298.743,382.5,0.989
1299.341,383.0,0.989
1299.945,383.5,0.989
1300.542,384.0,0.989
1301.14,384.5,0.989
1301.737,385.0,0.989
1302.333,385.5,0.989
1302.927,386.0,0.989
1303.521,386.5,0.989
1304.115,387.0,0.989
1304.715,387.5,0.989
1305.313,388.0,0.989
1305.91,388.5,0.989
1306.501,389.0,0.989
1307.093,389.5,0.989
1307.697,390.0,0.989
1308.299,390.5,0.989
1308.898,391.0,0.989
1309.491,391.5,0.989
1310.082,392.0,0.989
1310.671,392.5,0.989
1311.267,393.0,0.989
1311.87,393.5,0.989
1312.477,394.0,0.989
1313.082,394.5,0.989
1313.661,395.0,0.989
1314.247,395.5,0.989
1314.845,396.0,0.989
1315.442,396.5,0.989
1316.038,397.0,0.989
1316.633,397.5,0.989
1317.225,398.0,0.989
1317.81,398.5,0.989
1318.408,399.0,0.989
1319.012,399.5,0.989
1319.613,400.0,0.989
1320.211,400.5,0.989
1320.804,401.0,0.989
1321.394,401.5,0.989
1321.981,402.0,0.989
1322.582,402.5,0.989
1323.179,403.0,0.989
1323.765,403.5,0.989
1324.356,404.0,0.989
1324.952,404.5,0.989
1325.555,405.0,0.989
1326.156,405.5,0.989
1326.749,406.0,0.988
1327.342,406.5,0.988
1327.935,407.0,0.988
1328.525,407.5,0.988
1329.114,408.0,0.988
1329.703,408.5,0.988
1330.299,409.0,0.988
1330.902,409.5,0.988
1331.499,410.0,0.988
1332.093,410.5,0.988
1332.68,411.0,0.988
1333.273,411.5,0.988
1333.873,412.0,0.988
1334.459,412.5,0.988
1335.042,413.0,0.988
1335.637,413.5,0.988
1336.234,414.0,0.988
1336.832,414.5,0.988
1337.422,415.0,0.988
1338.007,415.5,0.988
1338.609,416.0,0.988
1339.206,416.5,0.988
1339.795,417.0,0.988
1340.381,417.5,0.988
1340.966,418.0,0.988
1341.559,418.5,0.988
1342.151,419.0,0.988
1342.743,419.5,0.988
1343.333,420.0,0.988
1343.921,420.5,0.988
1344.519,421.0,0.988
1345.116,421.5,0.988
1345.707,422.0,0.988
1346.295,422.5,0.988
1346.881,423.0,0.988
1347.477,423.5,0.988
1348.073,424.0,0.988
1348.655,424.5,0.988
1349.243,425.0,0.988
1349.837,425.5,0.988
1350.429,426.0,0.988
1351.02,426.5,0.988
1351.603,427.0,0.988
1352.19,427.5,0.988
1352.789,428.0,0.988
1353.383,428.5,0.988
1353.973,429.0,0.988
1354.567,429.5,0.988
1355.159,430.0,0.988
1355.742,430.5,0.988
1356.33,431.0,0.988
1356.922,431.5,0.988
1357.516,432.0,0.988
1358.11,432.5,0.988
1358.698,433.0,0.988
1359.284,433.5,0.988
1359.867,434.0,0.987
1360.454,434.5,0.987
1361.042,435.0,0.987
1361.622,435.5,0.987
1362.21,436.0,0.987
1362.812,436.5,0.987
1363.406,437.0,0.987
1363.996,437.5,0.987
1364.58,438.0,0.987
1365.165,438.5,0.987
1365.756,439.0,0.987
1366.345,439.5,0.987
1366.934,440.0,0.987
1367.519,440.5,0.987
1368.105,441.0,0.987
1368.692,441.5,0.987
1369.281,442.0,0.987
1369.872,442.5,0.987
1370.458,443.0,0.987
1371.043,443.5,0.987
1371.63,444.0,0.987
1372.219,444.5,0.987
1372.811,445.0,0.987
1373.396,445.5,0.987
1373.978,446.0,0.986
1374.563,446.5,0.986
1375.149,447.0,0.986
1375.741,447.5,0.986
1376.329,448.0,0.986
1376.915,448.5,0.986
1377.495,449.0,0.986
1378.076,449.5,0.986
1378.667,450.0,0.986
1379.256,450.5,0.986
1379.841,451.0,0.986
1380.424,451.5,0.986
1381.006,452.0,0.986
1381.595,452.5,0.986
1382.185,453.0,0.986
1382.778,453.5,0.986
1383.365,454.0,0.986
1383.948,454.5,0.985
1384.523,455.0,0.985
1385.1,455.5,0.985
1385.687,456.0,0.985
1386.274,456.5,0.985
1386.861,457.0,0.985
1387.446,457.5,0.985
1388.03,458.0,0.985
1388.614,458.5,0.985
1389.198,459.0,0.985
1389.782,459.5,0.985
1390.367,460.0,0.985
1390.953,460.5,0.984
1391.545,461.0,0.984
1392.135,461.5,0.984
1392.716,462.0,0.984
1393.296,462.5,0.984
1393.875,463.0,0.984
1394.457,463.5,0.984
1395.04,464.0,0.984
1395.629,464.5,0.983
1396.217,465.0,0.983
1396.803,465.5,0.983
1397.384,466.0,0.983
1397.963,466.5,0.983
1398.546,467.0,0.983
1399.128,467.5,0.983
1399.705,468.0,0.983
1400.287,468.5,0.983
1400.875,469.0,0.982
1401.458,469.5,0.982
1402.039,470.0,0.982
1402.629,470.5,0.982
1403.215,471.0,0.982
1403.791,471.5,0.982
1404.374,472.0,0.982
1404.959,472.5,0.981
1405.543,473.0,0.981
1406.125,473.5,0.981
1406.705,474.0,0.981
1407.287,474.5,0.981
1407.871,475.0,0.98
1408.452,475.5,0.98
1409.033,476.0,0.98
1409.618,476.5,0.98
1410.2,477.0,0.98
1410.774,477.5,0.98
1411.359,478.0,0.98
1411.95,478.5,0.979
1412.532,479.0,0.979
1413.112,479.5,0.979
1413.689,480.0,0.979
1414.268,480.5,0.979
1414.852,481.0,0.978
1415.435,481.5,0.978
1416.018,482.0,0.978
1416.59,482.5,0.978
1417.167,483.0,0.978
1417.755,483.5,0.977
1418.34,484.0,0.977
1418.922,484.5,0.977
1419.497,485.0,0.977
1420.073,485.5,0.977
1420.664,486.0,0.976
1421.248,486.5,0.976
1421.826,487.0,0.976
1422.408,487.5,0.976
1422.993,488.0,0.975
1423.574,488.5,0.975
1424.155,489.0,0.975
1424.737,489.5,0.975
1425.319,490.0,0.975
1425.9,490.5,0.974
1426.481,491.0,0.974
1427.061,491.5,0.974
1427.638,492.0,0.973
1428.216,492.5,0.973
1428.797,493.0,0.973
1429.383,493.5,0.973
1429.972,494.0,0.973
1430.548,494.5,0.972
1431.123,495.0,0.972
1431.699,495.5,0.972
1432.278,496.0,0.972
1432.858,496.5,0.971
1433.444,497.0,0.971
1434.031,497.5,0.971
1434.611,498.0,0.971
1435.193,498.5,0.971
1435.776,499.0,0.97
1436.354,499.5,0.97
1436.929,500.0,0.97
1437.506,500.5,0.969
1438.086,501.0,0.969
1438.673,501.5,0.969
1439.258,502.0,0.969
1439.841,502.5,0.969
1440.424,503.0,0.969
1441.006,503.5,0.968
1441.584,504.0,0.968
1442.164,504.5,0.968
1442.747,505.0,0.967
1443.323,505.5,0.967
1443.894,506.0,0.967
1444.477,506.5,0.967
1445.062,507.0,0.966
1445.639,507.5,0.966
1446.219,508.0,0.966
1446.804,508.5,0.965
1447.389,509.0,0.965
1447.975,509.5,0.965
1448.56,510.0,0.964
1449.144,510.5,0.964
1449.724,511.0,0.964
1450.304,511.5,0.964
1450.883,512.0,0.964
1451.468,512.5,0.964
1452.053,513.0,0.963
1452.63,513.5,0.962
1453.21,514.0,0.962
1453.793,514.5,0.962
1454.372,515.0,0.962
1454.95,515.5,0.961
1455.529,516.0,0.961
1456.109,516.5,0.961
1456.694,517.0,0.96
1457.278,517.5,0.96
1457.86,518.0,0.96
1458.443,518.5,0.96
1459.026,519.0,0.959
1459.603,519.5,0.959
1460.18,520.0,0.959
1460.761,520.5,0.958
1461.339,521.0,0.958
1461.917,521.5,0.957
1462.499,522.0,0.957
1463.082,522.5,0.957
1463.662,523.0,0.956
1464.244,523.5,0.956
1464.828,524.0,0.956
1465.414,524.5,0.956
1466.0,525.0,0.955
1466.575,525.5,0.954
1467.154,526.0,0.954
1467.741,526.5,0.953
1468.322,527.0,0.953
1468.899,527.5,0.953
1469.476,528.0,0.953
1470.054,528.5,0.952
1470.644,529.0,0.951
1471.229,529.5,0.951
1471.809,530.0,0.951
1472.39,530.5,0.951
1472.971,531.0,0.95
1473.552,531.5,0.949
1474.133,532.0,0.949
1474.716,532.5,0.948
1475.3,533.0,0.948
1475.882,533.5,0.947
1476.458,534.0,0.947
1477.033,534.5,0.946
1477.615,535.0,0.946
1478.199,535.5,0.946
1478.783,536.0,0.945
1479.369,536.5,0.945
1479.957,537.0,0.944
1480.542,537.5,0.943
1481.125,538.0,0.943
1481.696,538.5,0.942
1482.271,539.0,0.942
1482.849,539.5,0.941
1483.434,540.0,0.941
1484.021,540.5,0.94
1484.596,541.0,0.939
1485.176,541.5,0.939
1485.767,542.0,0.938
1486.352,542.5,0.938
1486.934,543.0,0.937
1487.513,543.5,0.936
1488.091,544.0,0.936
1488.67,544.5,0.935
1489.252,545.0,0.935
1489.838,545.5,0.934
1490.424,546.0,0.934
1491.011,546.5,0.933
1491.594,547.0,0.932
1492.178,547.5,0.932
1492.762,548.0,0.93
1493.342,548.5,0.93
1493.92,549.0,0.929
1494.501,549.5,0.928
1495.081,550.0,0.928
1495.664,550.5,0.927
1496.245,551.0,0.927
1496.826,551.5,0.926
1497.415,552.0,0.925
1498.008,552.5,0.924
1498.589,553.0,0.923
1499.168,553.5,0.923
1499.745,554.0,0.922
1500.329,554.5,0.922
1500.92,555.0,0.921
1501.497,555.5,0.92
1502.073,556.0,0.919
1502.656,556.5,0.918
1503.238,557.0,0.918
1503.818,557.5,0.917
1504.406,558.0,0.916
1504.998,558.5,0.915
1505.583,559.0,0.914
1506.166,559.5,0.914
1506.741,560.0,0.913
1507.324,560.5,0.912
1507.912,561.0,0.911
1508.494,561.5,0.911
1509.076,562.0,0.91
1509.659,562.5,0.909
1510.245,563.0,0.908
1510.835,563.5,0.907
1511.415,564.0,0.907
1511.992,564.5,0.906
1512.573,565.0,0.905
1513.155,565.5,0.904
1513.739,566.0,0.903
1514.323,566.5,0.902
1514.907,567.0,0.901
1515.49,567.5,0.901
1516.074,568.0,0.9
1516.661,568.5,0.899
1517.251,569.0,0.898
1517.846,569.5,0.897
1518.433,570.0,0.896
1519.016,570.5,0.895
1519.6,571.0,0.894
1520.184,571.5,0.894
1520.77,572.0,0.892
1521.352,572.5,0.892
1521.932,573.0,0.891
1522.515,573.5,0.89
1523.099,574.0,0.889
1523.69,574.5,0.888
1524.278,575.0,0.887
1524.861,575.5,0.886
1525.441,576.0,0.885
1526.02,576.5,0.884
1526.606,577.0,0.883
1527.194,577.5,0.883
1527.784,578.0,0.881
1528.366,578.5,0.88
1528.945,579.0,0.879
1529.532,579.5,0.878
1530.12,580.0,0.878
1530.709,580.5,0.877
1531.294,581.0,0.875
1531.874,581.5,0.874
1532.46,582.0,0.873
1533.048,582.5,0.872
1533.631,583.0,0.871
1534.216,583.5,0.871
1534.807,584.0,0.869
1535.394,584.5,0.868
1535.978,585.0,0.867
1536.561,585.5,0.866
1537.146,586.0,0.865
1537.737,586.5,0.864
1538.324,587.0,0.862
1538.908,587.5,0.861
1539.499,588.0,0.861
1540.091,588.5,0.86
1540.671,589.0,0.859
1541.255,589.5,0.857
1541.844,590.0,0.856
1542.43,590.5,0.855
1543.016,591.0,0.854
1543.603,591.5,0.853
1544.191,592.0,0.852
1544.779,592.5,0.85
1545.366,593.0,0.849
1545.953,593.5,0.847
1546.537,594.0,0.846
1547.123,594.5,0.845
1547.714,595.0,0.844
1548.302,595.5,0.842
1548.888,596.0,0.841
1549.478,596.5,0.84
1550.07,597.0,0.839
1550.662,597.5,0.838
1551.252,598.0,0.836
1551.841,598.5,0.834
1552.427,599.0,0.833
1553.012,599.5,0.832
1553.603,600.0,0.831
1554.192,600.5,0.829
1554.778,601.0,0.828
1555.362,601.5,0.826
1555.944,602.0,0.825
1556.539,602.5,0.823
1557.134,603.0,0.822
1557.724,603.5,0.821
1558.314,604.0,0.819
1558.905,604.5,0.817
1559.494,605.0,0.816
1560.082,605.5,0.814
1560.671,606.0,0.813
1561.262,606.5,0.811
1561.853,607.0,0.809
1562.44,607.5,0.808
1563.026,608.0,0.806
1563.621,608.5,0.804
1564.217,609.0,0.803
1564.812,609.5,0.801
1565.401,610.0,0.8
1565.987,610.5,0.798
1566.577,611.0,0.796
1567.167,611.5,0.794
1567.759,612.0,0.793
1568.349,612.5,0.791
1568.94,613.0,0.789
1569.526,613.5,0.787
1570.113,614.0,0.786
1570.707,614.5,0.784
1571.297,615.0,0.782
1571.883,615.5,0.779
1572.485,616.0,0.778
1573.088,616.5,0.776
1573.673,617.0,0.774
1574.261,617.5,0.772
1574.851,618.0,0.77
1575.442,618.5,0.768
1576.032,619.0,0.766
1576.631,619.5,0.764
1577.226,620.0,0.762
1577.813,620.5,0.76
1578.404,621.0,0.758
1578.995,621.5,0.756
1579.59,622.0,0.754
1580.184,622.5,0.751
1580.774,623.0,0.749
1581.37,623.5,0.747
1581.968,624.0,0.745
1582.558,624.5,0.743
1583.149,625.0,0.74
1583.738,625.5,0.738
1584.333,626.0,0.736
1584.932,626.5,0.733
1585.529,627.0,0.731
1586.124,627.5,0.73
1586.711,628.0,0.727
1587.303,628.5,0.725
1587.901,629.0,0.722
1588.5,629.5,0.72
1589.099,630.0,0.718
1589.692,630.5,0.715
1590.286,631.0,0.713
1590.878,631.5,0.71
1591.468,632.0,0.708
1592.058,632.5,0.706
1592.661,633.0,0.703
1593.256,633.5,0.7
1593.839,634.0,0.698
1594.434,634.5,0.695
1595.032,635.0,0.693
1595.62,635.5,0.691
1596.212,636.0,0.688
1596.811,636.5,0.685
1597.409,637.0,0.682
1598.006,637.5,0.68
1598.603,638.0,0.678
1599.197,638.5,0.675
1599.783,639.0,0.672
1600.381,639.5,0.669
1600.985,640.0,0.667
1601.583,640.5,0.664
1602.179,641.0,0.661
1602.771,641.5,0.659
1603.366,642.0,0.656
1603.962,642.5,0.653
1604.563,643.0,0.651
1605.164,643.5,0.648
1605.764,644.0,0.645
1606.361,644.5,0.642
1606.957,645.0,0.639
1607.547,645.5,0.637
1608.14,646.0,0.634
1608.743,646.5,0.631
1609.343,647.0,0.628
1609.941,647.5,0.625
1610.537,648.0,0.622
1611.132,648.5,0.619
1611.725,649.0,0.616
1612.319,649.5,0.613
1612.913,650.0,0.61
1613.515,650.5,0.608
1614.118,651.0,0.605
1614.72,651.5,0.602
1615.32,652.0,0.599
1615.92,652.5,0.595
1616.521,653.0,0.592
1617.121,653.5,0.589
1617.716,654.0,0.586
1618.314,654.5,0.583
1618.915,655.0,0.58
1619.521,655.5,0.577
1620.126,656.0,0.574
1620.727,656.5,0.571
1621.326,657.0,0.568
1621.924,657.5,0.564
1622.517,658.0,0.561
1623.111,658.5,0.558
1623.709,659.0,0.555
1624.308,659.5,0.551
1624.908,660.0,0.548
1625.506,660.5,0.545
1626.106,661.0,0.541
1626.713,661.5,0.538
1627.317,662.0,0.535
1627.917,662.5,0.531
1628.514,663.0,0.528
1629.112,663.5,0.524
1629.717,664.0,0.521
1630.318,664.5,0.518
1630.915,665.0,0.515
1631.521,665.5,0.511
1632.127,666.0,0.507
1632.728,666.5,0.504
1633.328,667.0,0.5
1633.926,667.5,0.496
1634.528,668.0,0.492
1635.128,668.5,0.488
1635.723,669.0,0.485
1636.322,669.5,0.481
1636.926,670.0,0.477
1637.532,670.5,0.473
1638.138,671.0,0.469
1638.742,671.5,0.466
1639.343,672.0,0.462
1639.941,672.5,0.457
1640.543,673.0,0.453
1641.146,673.5,0.449
1641.75,674.0,0.446
1642.353,674.5,0.442
1642.955,675.0,0.437
1643.56,675.5,0.433
1644.166,676.0,0.429
1644.775,676.5,0.425
1645.375,677.0,0.42
1645.97,677.5,0.416
1646.574,678.0,0.412
1647.177,678.5,0.408
1647.78,679.0,0.404
1648.381,679.5,0.399
1648.98,680.0,0.395
1649.593,680.5,0.391
1650.202,681.0,0.387
1650.798,681.5,0.382
1651.397,682.0,0.378
1651.996,682.5,0.374
1652.598,683.0,0.37
1653.202,683.5,0.366
1653.812,684.0,0.362
1654.415,684.5,0.358
1655.016,685.0,0.354
1655.614,685.5,0.35
1656.215,686.0,0.346
1656.818,686.5,0.342
1657.421,687.0,0.338
1658.025,687.5,0.335
1658.624,688.0,0.331
1659.228,688.5,0.327
1659.841,689.0,0.324
1660.44,689.5,0.32
1661.035,690.0,0.317
1661.638,690.5,0.314
1662.24,691.0,0.311
1662.84,691.5,0.307
1663.444,692.0,0.304
1664.048,692.5,0.302
1664.646,693.0,0.299
1665.249,693.5,0.296
1665.859,694.0,0.294
1666.455,694.5,0.291
1667.048,695.0,0.288
1667.644,695.5,0.286
1668.245,696.0,0.284
1668.851,696.5,0.282
1669.456,697.0,0.28
1670.06,697.5,0.278
1670.664,698.0,0.276
1671.268,698.5,0.274
1671.873,699.0,0.273
1672.482,699.5,0.272
1673.09,700.0,0.27
1673.687,700.5,0.269
1674.287,701.0,0.267
1674.891,701.5,0.266
1675.49,702.0,0.266
1676.089,702.5,0.265
1676.696,703.0,0.264
1677.302,703.5,0.263
1677.907,704.0,0.262
1678.51,704.5,0.261
1679.113,705.0,0.26
1679.715,705.5,0.259
1680.319,706.0,0.259
1680.926,706.5,0.258
1681.523,707.0,0.257
1682.121,707.5,0.257
1682.73,708.0,0.256
1683.34,708.5,0.256
1683.95,709.0,0.256
1684.548,709.5,0.255
1685.148,710.0,0.255
1685.756,710.5,0.254
1686.362,711.0,0.254
1686.967,711.5,0.254
1687.567,712.0,0.253
1688.169,712.5,0.253
1688.778,713.0,0.253
1689.379,713.5,0.253
1689.974,714.0,0.252
1690.579,714.5,0.252
1691.186,715.0,0.252
1691.796,715.5,0.251
1692.4,716.0,0.251
1693.001,716.5,0.251
1693.611,717.0,0.25
1694.218,717.5,0.25
1694.819,718.0,0.249
1695.422,718.5,0.249
1696.024,719.0,0.249
1696.633,719.5,0.249
1697.243,720.0,0.249
1697.855,720.5,0.248
1698.455,721.0,0.248
1699.053,721.5,0.248
1699.657,722.0,0.247
1700.259,722.5,0.247
1700.859,723.0,0.247
1701.468,723.5,0.247
1702.079,724.0,0.246
1702.69,724.5,0.246
1703.294,725.0,0.246
1703.891,725.5,0.245
1704.496,726.0,0.245
1705.103,726.5,0.245
1705.711,727.0,0.244
1706.317,727.5,0.244
1706.923,728.0,0.244
1707.529,728.5,0.243
1708.137,729.0,0.243
1708.746,729.5,0.243
1709.352,730.0,0.243
1709.954,730.5,0.242
1710.561,731.0,0.242
1711.168,731.5,0.242
1711.777,732.0,0.241
1712.383,732.5,0.241
1712.988,733.0,0.241
1713.596,733.5,0.241
1714.202,734.0,0.241
1714.804,734.5,0.24
1715.407,735.0,0.24
1716.012,735.5,0.24
1716.626,736.0,0.239
1717.236,736.5,0.239
1717.842,737.0,0.239
1718.45,737.5,0.239
1719.057,738.0,0.238
1719.663,738.5,0.238
1720.265,739.0,0.238
1720.861,739.5,0.238
1721.467,740.0,0.238
1722.077,740.5,0.237
1722.686,741.0,0.237
1723.294,741.5,0.237
1723.902,742.0,0.236
1724.507,742.5,0.236
1725.113,743.0,0.236
1725.722,743.5,0.236
1726.33,744.0,0.236
1726.936,744.5,0.235
1727.541,745.0,0.235
1728.146,745.5,0.235
1728.753,746.0,0.234
1729.361,746.5,0.234
1729.968,747.0,0.234
1730.572,747.5,0.234
1731.177,748.0,0.234
1731.787,748.5,0.233
1732.392,749.0,0.233
1732.994,749.5,0.233
1733.607,750.0,0.233
1734.217,750.5,0.233
1734.823,751.0,0.232
1735.425,751.5,0.232
1736.026,752.0,0.232
1736.635,752.5,0.231
1737.246,753.0,0.231
1737.858,753.5,0.231
1738.466,754.0,0.231
1739.073,754.5,0.231
1739.68,755.0,0.23
1740.288,755.5,0.23
1740.896,756.0,0.23
1741.498,756.5,0.23
1742.1,757.0,0.23
1742.713,757.5,0.229
1743.324,758.0,0.229
1743.933,758.5,0.229
1744.539,759.0,0.229
1745.145,759.5,0.229
1745.754,760.0,0.228
1746.363,760.5,0.228
1746.973,761.0,0.228
1747.578,761.5,0.228
1748.184,762.0,0.228
1748.792,762.5,0.227
1749.395,763.0,0.227
1749.995,763.5,0.227
1750.605,764.0,0.227
1751.216,764.5,0.227
1751.828,765.0,0.226
1752.436,765.5,0.226
1753.042,766.0,0.226
1753.648,766.5,0.226
1754.256,767.0,0.226
1754.867,767.5,0.226
1755.475,768.0,0.226
1756.083,768.5,0.225
1756.693,769.0,0.225
1757.3,769.5,0.225
1757.906,770.0,0.225
1758.515,770.5,0.224
1759.125,771.0,0.224
1759.734,771.5,0.224
1760.34,772.0,0.224
1760.942,772.5,0.224
1761.551,773.0,0.224
1762.158,773.5,0.224
1762.759,774.0,0.223
1763.366,774.5,0.223
1763.976,775.0,0.223
1764.585,775.5,0.223
1765.195,776.0,0.223
1765.806,776.5,0.223
1766.414,777.0,0.223
1767.022,777.5,0.222
1767.627,778.0,0.222
1768.235,778.5,0.222
1768.848,779.0,0.222
1769.45,779.5,0.222
1770.049,780.0,0.222
1770.656,780.5,0.221
1771.264,781.0,0.221
1771.873,781.5,0.221
1772.486,782.0,0.221
1773.1,782.5,0.221
1773.709,783.0,0.221
1774.315,783.5,0.221
1774.919,784.0,0.22
1775.531,784.5,0.22
1776.141,785.0,0.22
1776.745,785.5,0.22
1777.349,786.0,0.22
1777.953,786.5,0.22
1778.562,787.0,0.22
1779.173,787.5,0.22
1779.787,788.0,0.219
1780.394,788.5,0.219
1780.999,789.0,0.219
1781.606,789.5,0.219
1782.213,790.0,0.219
1782.817,790.5,0.219
1783.427,791.0,0.219
1784.039,791.5,0.219
1784.649,792.0,0.218
1785.256,792.5,0.218
1785.86,793.0,0.218
1786.468,793.5,0.218
1787.077,794.0,0.218
1787.687,794.5,0.218
1788.296,795.0,0.218
1788.903,795.5,0.218
1789.509,796.0,0.217
1790.115,796.5,0.217
1790.719,797.0,0.217
1791.326,797.5,0.217
1791.933,798.0,0.217
1792.541,798.5,0.217
1793.149,799.0,0.217
1793.756,799.5,0.217
1794.362,800.0,0.217
1794.967,800.5,0.216
1795.571,801.0,0.216
1796.176,801.5,0.216
1796.786,802.0,0.216
1797.394,802.5,0.216
1798.001,803.0,0.216
1798.617,803.5,0.216
1799.228,804.0,0.216
1799.832,804.5,0.216
1800.435,805.0,0.216
1801.038,805.5,0.215
1801.644,806.0,0.215
1802.251,806.5,0.215
1802.861,807.0,0.215
1803.467,807.5,0.215
1804.074,808.0,0.215
1804.687,808.5,0.215
1805.298,809.0,0.215
1805.906,809.5,0.215
1806.509,810.0,0.214
1807.113,810.5,0.214
1807.725,811.0,0.214
1808.334,811.5,0.214
1808.942,812.0,0.214
1809.547,812.5,0.214
1810.152,813.0,0.214
1810.76,813.5,0.214
1811.369,814.0,0.214
1811.978,814.5,0.213
1812.579,815.0,0.213
1813.183,815.5,0.213
1813.797,816.0,0.213
1814.408,816.5,0.213
1815.017,817.0,0.213
1815.621,817.5,0.213
1816.225,818.0,0.213
1816.83,818.5,0.213
1817.436,819.0,0.213
1818.044,819.5,0.212
1818.654,820.0,0.212
1819.263,820.5,0.212
1819.869,821.0,0.212
1820.47,821.5,0.212
1821.071,822.0,0.212
1821.681,822.5,0.212
1822.29,823.0,0.212
1822.898,823.5,0.212
1823.509,824.0,0.212
1824.12,824.5,0.212
1824.726,825.0,0.211
1825.33,825.5,0.211
1825.933,826.0,0.211
1826.543,826.5,0.211
1827.153,827.0,0.211
1827.758,827.5,0.211
1828.366,828.0,0.211
1828.976,828.5,0.211
1829.576,829.0,0.211
1830.181,829.5,0.211
1830.796,830.0,0.211
1831.4,830.5,0.211
1831.999,831.0,0.21
1832.606,831.5,0.21
1833.214,832.0,0.21
1833.826,832.5,0.21
1834.44,833.0,0.21
1835.054,833.5,0.21
1835.658,834.0,0.21
1836.263,834.5,0.21
1836.869,835.0,0.21
1837.479,835.5,0.21
1838.089,836.0,0.21
1838.698,836.5,0.21
1839.304,837.0,0.21
1839.907,837.5,0.209
1840.511,838.0,0.209
1841.117,838.5,0.209
1841.732,839.0,0.209
1842.339,839.5,0.209
1842.94,840.0,0.209
1843.547,840.5,0.209
1844.157,841.0,0.209
1844.77,841.5,0.209
1845.379,842.0,0.209
1845.987,842.5,0.209
1846.594,843.0,0.208
1847.202,843.5,0.208
1847.81,844.0,0.208
1848.421,844.5,0.208
1849.033,845.0,0.208
1849.638,845.5,0.208
1850.243,846.0,0.208
1850.847,846.5,0.208
1851.456,847.0,0.208
1852.066,847.5,0.208
1852.67,848.0,0.208
1853.275,848.5,0.208
1853.881,849.0,0.208
1854.493,849.5,0.208
1855.104,850.0,0.208
1855.711,850.5,0.207
1856.318,851.0,0.207
1856.925,851.5,0.207
1857.529,852.0,0.207
1858.133,852.5,0.207
1858.738,853.0,0.207
1859.346,853.5,0.207
1859.956,854.0,0.207
1860.568,854.5,0.207
1861.177,855.0,0.207
1861.779,855.5,0.207
1862.39,856.0,0.207
1863.006,856.5,0.207
1863.603,857.0,0.206
1864.205,857.5,0.206
1864.817,858.0,0.206
1865.424,858.5,0.206
1866.03,859.0,0.206
1866.639,859.5,0.206
1867.247,860.0,0.206
1867.853,860.5,0.206
1868.461,861.0,0.206
1869.069,861.5,0.206
1869.675,862.0,0.206
1870.281,862.5,0.206
1870.886,863.0,0.205
1871.495,863.5,0.205
1872.103,864.0,0.205
1872.711,864.5,0.205
1873.314,865.0,0.205
1873.913,865.5,0.205
1874.524,866.0,0.205
1875.135,866.5,0.205
1875.738,867.0,0.205
1876.344,867.5,0.205
1876.953,868.0,0.205
1877.557,868.5,0.205
1878.163,869.0,0.205
1878.772,869.5,0.204
1879.381,870.0,0.204
1879.989,870.5,0.204
1880.594,871.0,0.204
1881.2,871.5,0.204
1881.811,872.0,0.204
1882.419,872.5,0.204
1883.026,873.0,0.204
1883.626,873.5,0.204
1884.228,874.0,0.204
1884.834,874.5,0.204
1885.444,875.0,0.204
1886.054,875.5,0.203
1886.658,876.0,0.203
1887.263,876.5,0.203
1887.868,877.0,0.203
1888.48,877.5,0.203
1889.093,878.0,0.203
1889.699,878.5,0.203
1890.305,879.0,0.203
1890.913,879.5,0.203
1891.514,880.0,0.203
1892.116,880.5,0.203
1892.726,881.0,0.203
1893.331,881.5,0.203
1893.933,882.0,0.203
1894.543,882.5,0.202
1895.156,883.0,0.202
1895.772,883.5,0.202
1896.374,884.0,0.202
1896.967,884.5,0.202
1897.578,885.0,0.202
1898.19,885.5,0.202
1898.803,886.0,0.202
1899.409,886.5,0.202
1900.012,887.0,0.202
1900.614,887.5,0.202
1901.219,888.0,0.202
1901.829,888.5,0.202
1902.435,889.0,0.202
1903.039,889.5,0.202
1903.649,890.0,0.201
1904.257,890.5,0.201
1904.862,891.0,0.201
1905.467,891.5,0.201
1906.071,892.0,0.201
1906.673,892.5,0.201
1907.277,893.0,0.201
1907.886,893.5,0.201
1908.49,894.0,0.201
1909.095,894.5,0.201
1909.705,895.0,0.201
1910.315,895.5,0.201
1910.926,896.0,0.201
1911.53,896.5,0.201
1912.135,897.0,0.201
1912.742,897.5,0.201
1913.347,898.0,0.201
1913.951,898.5,0.2
1914.562,899.0,0.2
1915.173,899.5,0.2
1915.78,900.0,0.2
1916.381,900.5,0.2
1916.977,901.0,0.2
1917.582,901.5,0.2
1918.189,902.0,0.2
1918.802,902.5,0.2
1919.408,903.0,0.2
1920.01,903.5,0.2
1920.617,904.0,0.2
1921.223,904.5,0.2
1921.825,905.0,0.199
1922.433,905.5,0.199
1923.043,906.0,0.199
1923.645,906.5,0.199
1924.247,907.0,0.199
1924.85,907.5,0.199
1925.451,908.0,0.199
1926.053,908.5,0.199
1926.665,909.0,0.199
1927.273,909.5,0.199
1927.877,910.0,0.199
1928.486,910.5,0.199
1929.095,911.0,0.199
1929.699,911.5,0.199
1930.304,912.0,0.199
1930.91,912.5,0.199
1931.511,913.0,0.199
1932.113,913.5,0.199
1932.718,914.0,0.198
1933.323,914.5,0.198
1933.929,915.0,0.198
1934.54,915.5,0.198
1935.15,916.0,0.198
1935.75,916.5,0.198
1936.352,917.0,0.198
1936.954,917.5,0.198
1937.567,918.0,0.198
1938.176,918.5,0.198
1938.775,919.0,0.198
1939.38,919.5,0.198
1939.988,920.0,0.198
1940.586,920.5,0.198
1941.186,921.0,0.198
1941.792,921.5,0.198
1942.402,922.0,0.198
1943.015,922.5,0.198
1943.62,923.0,0.198
1944.225,923.5,0.198
1944.829,924.0,0.197
1945.433,924.5,0.197
1946.038,925.0,0.197
1946.646,925.5,0.197
1947.253,926.0,0.197
1947.859,926.5,0.197
1948.464,927.0,0.197
1949.068,927.5,0.197
1949.673,928.0,0.197
1950.277,928.5,0.197
1950.881,929.0,0.197
1951.491,929.5,0.197
1952.101,930.0,0.197
1952.7,930.5,0.197
1953.304,931.0,0.197
1953.912,931.5,0.197
1954.521,932.0,0.197
1955.127,932.5,0.197
1955.727,933.0,0.197
1956.327,933.5,0.197
1956.929,934.0,0.197
1957.538,934.5,0.196
1958.146,935.0,0.196
1958.752,935.5,0.196
1959.359,936.0,0.196
1959.967,936.5,0.196
1960.57,937.0,0.196
1961.172,937.5,0.196
1961.776,938.0,0.196
1962.385,938.5,0.196
1962.999,939.0,0.196
1963.6,939.5,0.196
1964.201,940.0,0.196
1964.799,940.5,0.196
1965.402,941.0,0.196
1966.008,941.5,0.196
1966.615,942.0,0.196
1967.221,942.5,0.196
1967.828,943.0,0.196
1968.43,943.5,0.196
1969.032,944.0,0.196
1969.641,944.5,0.195
1970.247,945.0,0.195
1970.848,945.5,0.195
1971.453,946.0,0.195
1972.059,946.5,0.195
1972.665,947.0,0.195
1973.271,947.5,0.195
1973.874,948.0,0.195
1974.476,948.5,0.195
1975.077,949.0,0.195
1975.68,949.5,0.195
1976.287,950.0,0.195
1976.897,950.5,0.195
1977.504,951.0,0.195
1978.108,951.5,0.195
1978.708,952.0,0.195
1979.312,952.5,0.195
1979.919,953.0,0.195
1980.52,953.5,0.194
1981.121,954.0,0.194
1981.728,954.5,0.194
1982.33,955.0,0.194
1982.927,955.5,0.194
1983.537,956.0,0.194
1984.147,956.5,0.194
1984.749,957.0,0.194
1985.354,957.5,0.194
1985.961,958.0,0.194
1986.568,958.5,0.194
1987.173,959.0,0.194
1987.776,959.5,0.194
1988.382,960.0,0.194
1988.989,960.5,0.194
1989.593,961.0,0.194
1990.196,961.5,0.194
1990.799,962.0,0.194
1991.398,962.5,0.194
1991.996,963.0,0.194
1992.605,963.5,0.194
1993.212,964.0,0.194
1993.814,964.5,0.194
1994.42,965.0,0.194
1995.028,965.5,0.194
1995.631,966.0,0.193
1996.233,966.5,0.193
1996.833,967.0,0.193
1997.439,967.5,0.193
1998.047,968.0,0.193
1998.649,968.5,0.193
1999.255,969.0,0.193
1999.864,969.5,0.193
2000.464,970.0,0.193
2001.062,970.5,0.193
2001.669,971.0,0.193
2002.275,971.5,0.193
2002.881,972.0,0.193
2003.488,972.5,0.193
2004.095,973.0,0.193
2004.701,973.5,0.193
2005.305,974.0,0.193
2005.907,974.5,0.193
2006.511,975.0,0.193
2007.115,975.5,0.193
2007.72,976.0,0.193
2008.324,976.5,0.193
2008.925,977.0,0.193
2009.53,977.5,0.193
2010.136,978.0,0.193
2010.743,978.5,0.193
2011.345,979.0,0.193
2011.944,979.5,0.193
2012.549,980.0,0.192
2013.156,980.5,0.192
2013.765,981.0,0.192
2014.371,981.5,0.192
2014.976,982.0,0.192
2015.582,982.5,0.192
2016.186,983.0,0.192
2016.786,983.5,0.192
2017.39,984.0,0.192
2017.995,984.5,0.192
2018.596,985.0,0.192
2019.199,985.5,0.192
2019.807,986.0,0.192
2020.409,986.5,0.192
2021.009,987.0,0.192
2021.616,987.5,0.192
2022.222,988.0,0.192
2022.825,988.5,0.192
2023.436,989.0,0.192
2024.048,989.5,0.192
2024.646,990.0,0.192
2025.246,990.5,0.192
2025.85,991.0,0.192
2026.452,991.5,0.192
2027.054,992.0,0.192
2027.665,992.5,0.192
2028.276,993.0,0.192
2028.886,993.5,0.192
2029.489,994.0,0.192
2030.09,994.5,0.192
2030.689,995.0,0.191
2031.291,995.5,0.191
2031.895,996.0,0.191
2032.498,996.5,0.191
2033.101,997.0,0.191
2033.71,997.5,0.191
2034.316,998.0,0.191
2034.919,998.5,0.191
2035.524,999.0,0.191
2036.128,999.5,0.191
2036.734,1000.0,0.191
2037.337,1000.5,0.191
2037.94,1001.0,0.191
2038.542,1001.5,0.191
2039.143,1002.0,0.191
2039.741,1002.5,0.191
2040.345,1003.0,0.191
2040.951,1003.5,0.191
2041.554,1004.0,0.191
2042.155,1004.5,0.191
2042.755,1005.0,0.191
2043.356,1005.5,0.191
2043.957,1006.0,0.191
2044.562,1006.5,0.191
2045.168,1007.0,0.191
2045.772,1007.5,0.191
2046.376,1008.0,0.191
2046.981,1008.5,0.191
2047.584,1009.0,0.191
2048.187,1009.5,0.191
2048.791,1010.0,0.191
2049.394,1010.5,0.191
2049.998,1011.0,0.19
2050.597,1011.5,0.19
2051.197,1012.0,0.19
2051.799,1012.5,0.19
2052.399,1013.0,0.19
2052.999,1013.5,0.19
2053.604,1014.0,0.19
2054.21,1014.5,0.19
2054.817,1015.0,0.19
2055.424,1015.5,0.19
2056.031,1016.0,0.19
2056.626,1016.5,0.19
2057.225,1017.0,0.19
2057.832,1017.5,0.19
2058.433,1018.0,0.19
2059.034,1018.5,0.19
2059.641,1019.0,0.19
2060.245,1019.5,0.19
2060.846,1020.0,0.19
2061.447,1020.5,0.19
2062.047,1021.0,0.19
2062.649,1021.5,0.19
2063.253,1022.0,0.19
2063.857,1022.5,0.19
2064.461,1023.0,0.19
2065.064,1023.5,0.19
2065.666,1024.0,0.19
2066.266,1024.5,0.19
2066.864,1025.0,0.19
2067.468,1025.5,0.19
2068.075,1026.0,0.19
2068.68,1026.5,0.19
2069.284,1027.0,0.19
2069.888,1027.5,0.189
2070.492,1028.0,0.189
2071.096,1028.5,0.189
2071.695,1029.0,0.189
2072.297,1029.5,0.189
2072.903,1030.0,0.189
2073.507,1030.5,0.189
2074.111,1031.0,0.189
2074.712,1031.5,0.189
2075.314,1032.0,0.189
2075.917,1032.5,0.189
2076.514,1033.0,0.189
2077.113,1033.5,0.189
2077.718,1034.0,0.189
2078.321,1034.5,0.189
2078.923,1035.0,0.189
2079.536,1035.5,0.189
2080.145,1036.0,0.189
2080.741,1036.5,0.189
2081.333,1037.0,0.189
2081.922,1037.5,0.189
2082.529,1038.0,0.189
2083.137,1038.5,0.189
2083.742,1039.0,0.189
2084.344,1039.5,0.189
2084.944,1040.0,0.189
2085.544,1040.5,0.189
2086.145,1041.0,0.189
2086.746,1041.5,0.189
2087.351,1042.0,0.189
2087.959,1042.5,0.189
2088.565,1043.0,0.189
2089.169,1043.5,0.189
2089.768,1044.0,0.188
2090.367,1044.5,0.188
2090.966,1045.0,0.188
2091.557,1045.5,0.188
2092.152,1046.0,0.188
2092.765,1046.5,0.188
2093.371,1047.0,0.188
2093.972,1047.5,0.188
2094.571,1048.0,0.188
2095.17,1048.5,0.188
2095.775,1049.0,0.188
2096.379,1049.5,0.188
2096.983,1050.0,0.188
2097.581,1050.5,0.188
2098.18,1051.0,0.188
2098.782,1051.5,0.188
2099.384,1052.0,0.188
2099.986,1052.5,0.188
2100.588,1053.0,0.188
2101.188,1053.5,0.188
2101.781,1054.0,0.188
2102.38,1054.5,0.188
2102.981,1055.0,0.188
2103.541,1055.5,0.188
2104.203,1056.0,0.188
2105.321,1056.5,0.188
2106.333,1057.0,0.188
2107.24,1057.5,0.188
2108.128,1058.0,0.188
2109.055,1058.5,0.188
2110.012,1059.0,0.188
2111.015,1059.5,0.187
2112.067,1060.0,0.187
2113.166,1060.5,0.187
2114.355,1061.0,0.187
2115.575,1061.5,0.187
2116.882,1062.0,0.187
2118.243,1062.5,0.187
2119.712,1063.0,0.187
2121.298,1063.5,0.187
2122.943,1064.0,0.187
2124.0,1064.289,0.187
2134.0,1066.521,0.187
2144.0,1068.002,0.187
2154.0,1069.013,0.187
2164.0,1069.734,0.187
2174.0,1070.239,0.186
2184.0,1070.623,0.186
2194.0,1070.915,0.186
2204.0,1071.138,0.186
2214.0,1071.327,0.186
2224.0,1071.481,0.186
2234.0,1071.615,0.185
2244.0,1071.715,0.185
2254.0,1071.819,0.185
2264.0,1071.899,0.185
2274.0,1071.972,0.185
2284.0,1072.026,0.185
2294.0,1072.089,0.185
2304.0,1072.138,0.184
2314.0,1072.177,0.184
2324.0,1072.216,0.184
2334.0,1072.239,0.184
2344.0,1072.27,0.184
2354.0,1072.299,0.184
2364.0,1072.315,0.184
2374.0,1072.339,0.184
2384.0,1072.351,0.184
2394.0,1072.361,0.183
2404.0,1072.379,0.183
2414.0,1072.391,0.183
2424.0,1072.403,0.183
