Time (s),Temperature (K),Mass (mg)
0.0,304.936,4.009
4.0,304.911,4.008
6.0,304.893,4.007
8.0,304.897,4.006
11.0,304.861,4.005
13.0,304.864,4.004
16.0,304.847,4.003
18.0,304.842,4.002
21.0,304.835,4.001
23.0,304.833,4.0
26.0,304.794,3.999
29.0,304.792,3.998
31.0,304.796,3.997
34.0,304.783,3.996
37.0,304.769,3.995
40.0,304.774,3.994
42.0,304.763,3.993
45.0,304.749,3.992
48.0,304.737,3.991
51.0,304.735,3.99
54.0,304.729,3.989
57.0,304.725,3.988
60.0,304.714,3.987
63.0,304.698,3.986
66.0,304.693,3.985
69.0,304.689,3.984
73.0,304.674,3.983
76.0,304.655,3.982
79.0,304.66,3.981
82.0,304.66,3.98
86.0,304.665,3.979
89.0,304.649,3.978
93.0,304.64,3.977
96.0,304.646,3.976
100.0,304.637,3.975
104.0,304.622,3.974
107.0,304.623,3.973
111.0,304.604,3.972
115.0,304.587,3.971
119.0,304.593,3.97
123.0,304.576,3.969
127.0,304.578,3.968
131.0,304.572,3.967
136.0,304.571,3.966
140.0,304.572,3.965
145.0,304.558,3.964
149.0,304.554,3.963
154.0,304.544,3.962
158.0,304.544,3.961
163.0,304.541,3.96
167.0,304.531,3.959
172.0,304.535,3.958
178.0,304.525,3.957
183.0,304.525,3.956
188.0,304.508,3.955
193.0,304.512,3.954
198.0,304.513,3.953
204.0,304.498,3.952
209.0,304.485,3.951
215.0,304.47,3.95
221.0,304.483,3.949
226.0,304.46,3.948
232.0,304.473,3.947
238.0,304.468,3.946
244.0,304.475,3.945
251.0,304.463,3.944
258.0,304.458,3.943
264.0,304.457,3.942
270.0,304.468,3.941
277.0,304.453,3.94
285.0,304.472,3.939
292.0,304.447,3.938
299.0,304.43,3.937
306.0,304.433,3.936
313.0,304.415,3.935
321.0,304.419,3.934
329.0,304.434,3.933
337.0,304.422,3.932
346.0,304.428,3.931
354.0,304.42,3.93
363.0,304.42,3.929
373.0,304.42,3.928
384.0,304.42,3.927
394.0,304.417,3.926
404.0,304.398,3.925
414.0,304.415,3.924
424.0,304.409,3.923
434.0,304.419,3.922
446.0,304.416,3.921
457.0,304.415,3.92
469.0,304.411,3.919
481.0,304.412,3.918
494.0,304.409,3.917
507.0,304.414,3.916
522.0,304.413,3.915
536.0,304.425,3.914
551.0,304.441,3.913
567.0,304.418,3.912
584.0,304.401,3.911
600.0,304.434,3.91
617.0,304.414,3.909
633.0,304.41,3.908
654.0,304.395,3.907
674.0,304.406,3.906
695.0,304.399,3.905
715.0,304.399,3.904
738.0,304.394,3.903
760.0,304.396,3.902
789.0,304.412,3.901
810.0,304.408,3.9
840.0,304.417,3.899
870.0,304.424,3.898
895.0,304.418,3.897
926.0,304.416,3.896
956.0,304.424,3.895
984.0,304.419,3.894
1022.0,304.42,3.893
1071.0,304.422,3.892
1118.0,304.415,3.891
1166.0,304.407,3.89
1200.0,304.438,3.889
1203.708,305.0,3.888
1204.985,305.5,3.888
1205.959,306.0,3.887
1206.769,306.5,3.887
1207.56,307.0,3.887
1208.385,307.5,3.887
1209.255,308.0,3.887
1210.102,308.5,3.887
1210.883,309.0,3.887
1211.597,309.5,3.888
1212.286,310.0,3.888
1212.957,310.5,3.889
1213.622,311.0,3.889
1214.286,311.5,3.889
1214.95,312.0,3.89
1215.569,312.5,3.89
1216.184,313.0,3.89
1216.797,313.5,3.89
1217.42,314.0,3.89
1218.048,314.5,3.891
1218.675,315.0,3.891
1219.285,315.5,3.891
1219.877,316.0,3.891
1220.464,316.5,3.891
1221.053,317.0,3.891
1221.668,317.5,3.891
1222.275,318.0,3.891
1222.872,318.5,3.891
1223.463,319.0,3.891
1224.053,319.5,3.89
1224.657,320.0,3.89
1225.263,320.5,3.89
1225.872,321.0,3.89
1226.473,321.5,3.89
1227.071,322.0,3.89
1227.667,322.5,3.889
1228.265,323.0,3.889
1228.866,323.5,3.889
1229.469,324.0,3.889
1230.07,324.5,3.889
1230.668,325.0,3.888
1231.26,325.5,3.888
1231.846,326.0,3.888
1232.445,326.5,3.888
1233.046,327.0,3.887
1233.638,327.5,3.887
1234.232,328.0,3.887
1234.829,328.5,3.887
1235.431,329.0,3.887
1236.033,329.5,3.886
1236.623,330.0,3.886
1237.218,330.5,3.886
1237.821,331.0,3.885
1238.411,331.5,3.885
1238.995,332.0,3.885
1239.603,332.5,3.885
1240.204,333.0,3.885
1240.796,333.5,3.884
1241.396,334.0,3.884
1242.002,334.5,3.884
1242.614,335.0,3.883
1243.217,335.5,3.883
1243.804,336.0,3.883
1244.399,336.5,3.883
1244.998,337.0,3.883
1245.591,337.5,3.882
1246.186,338.0,3.882
1246.784,338.5,3.882
1247.385,339.0,3.882
1247.986,339.5,3.881
1248.58,340.0,3.881
1249.177,340.5,3.881
1249.78,341.0,3.88
1250.383,341.5,3.88
1250.986,342.0,3.879
1251.581,342.5,3.879
1252.179,343.0,3.879
1252.785,343.5,3.878
1253.386,344.0,3.878
1253.983,344.5,3.878
1254.581,345.0,3.877
1255.181,345.5,3.877
1255.79,346.0,3.876
1256.382,346.5,3.876
1256.966,347.0,3.876
1257.566,347.5,3.875
1258.167,348.0,3.875
1258.77,348.5,3.874
1259.37,349.0,3.874
1259.969,349.5,3.873
1260.571,350.0,3.872
1261.172,350.5,3.872
1261.771,351.0,3.872
1262.374,351.5,3.872
1262.979,352.0,3.871
1263.589,352.5,3.87
1264.195,353.0,3.87
1264.793,353.5,3.869
1265.394,354.0,3.869
1265.998,354.5,3.868
1266.601,355.0,3.867
1267.2,355.5,3.867
1267.793,356.0,3.866
1268.393,356.5,3.866
1268.998,357.0,3.865
1269.596,357.5,3.865
1270.194,358.0,3.865
1270.794,358.5,3.864
1271.401,359.0,3.864
1272.012,359.5,3.863
1272.608,360.0,3.862
1273.207,360.5,3.862
1273.813,361.0,3.861
1274.417,361.5,3.861
1275.019,362.0,3.86
1275.617,362.5,3.859
1276.213,363.0,3.859
1276.805,363.5,3.858
1277.408,364.0,3.858
1278.017,364.5,3.857
1278.613,365.0,3.856
1279.212,365.5,3.856
1279.815,366.0,3.855
1280.421,366.5,3.855
1281.027,367.0,3.854
1281.624,367.5,3.853
1282.22,368.0,3.853
1282.814,368.5,3.852
1283.414,369.0,3.852
1284.017,369.5,3.851
1284.62,370.0,3.851
1285.221,370.5,3.851
1285.817,371.0,3.85
1286.418,371.5,3.85
1287.02,372.0,3.849
1287.607,372.5,3.848
1288.2,373.0,3.848
1288.807,373.5,3.847
1289.41,374.0,3.847
1290.011,374.5,3.846
1290.607,375.0,3.846
1291.205,375.5,3.846
1291.806,376.0,3.845
1292.405,376.5,3.845
1293.005,377.0,3.844
1293.589,377.5,3.843
1294.178,378.0,3.843
1294.779,378.5,3.843
1295.381,379.0,3.843
1295.984,379.5,3.842
1296.592,380.0,3.842
1297.193,380.5,3.842
1297.783,381.0,3.841
1298.376,381.5,3.841
1298.97,382.0,3.84
1299.565,382.5,3.84
1300.162,383.0,3.84
1300.763,383.5,3.839
1301.361,384.0,3.839
1301.956,384.5,3.839
1302.553,385.0,3.838
1303.152,385.5,3.838
1303.755,386.0,3.838
1304.352,386.5,3.838
1304.944,387.0,3.838
1305.534,387.5,3.837
1306.125,388.0,3.837
1306.72,388.5,3.837
1307.316,389.0,3.837
1307.912,389.5,3.836
1308.505,390.0,3.836
1309.099,390.5,3.836
1309.7,391.0,3.836
1310.295,391.5,3.836
1310.884,392.0,3.835
1311.483,392.5,3.835
1312.083,393.0,3.835
1312.677,393.5,3.835
1313.269,394.0,3.835
1313.857,394.5,3.835
1314.451,395.0,3.835
1315.047,395.5,3.834
1315.646,396.0,3.834
1316.245,396.5,3.834
1316.842,397.0,3.834
1317.432,397.5,3.834
1318.021,398.0,3.834
1318.624,398.5,3.834
1319.226,399.0,3.834
1319.825,399.5,3.834
1320.418,400.0,3.834
1321.01,400.5,3.833
1321.605,401.0,3.833
1322.201,401.5,3.833
1322.795,402.0,3.833
1323.39,402.5,3.833
1323.987,403.0,3.833
1324.577,403.5,3.833
1325.168,404.0,3.833
1325.758,404.5,3.833
1326.349,405.0,3.833
1326.941,405.5,3.833
1327.54,406.0,3.833
1328.14,406.5,3.833
1328.737,407.0,3.833
1329.33,407.5,3.833
1329.92,408.0,3.833
1330.514,408.5,3.833
1331.109,409.0,3.833
1331.708,409.5,3.832
1332.301,410.0,3.832
1332.889,410.5,3.832
1333.483,411.0,3.832
1334.078,411.5,3.832
1334.669,412.0,3.832
1335.259,412.5,3.832
1335.848,413.0,3.832
1336.443,413.5,3.832
1337.039,414.0,3.832
1337.635,414.5,3.832
1338.231,415.0,3.832
1338.828,415.5,3.832
1339.413,416.0,3.832
1339.994,416.5,3.832
1340.59,417.0,3.832
1341.184,417.5,3.832
1341.773,418.0,3.832
1342.366,418.5,3.832
1342.962,419.0,3.832
1343.562,419.5,3.832
1344.158,420.0,3.832
1344.741,420.5,3.832
1345.33,421.0,3.832
1345.923,421.5,3.832
1346.514,422.0,3.832
1347.105,422.5,3.832
1347.696,423.0,3.831
1348.289,423.5,3.831
1348.882,424.0,3.831
1349.481,424.5,3.831
1350.079,425.0,3.831
1350.658,425.5,3.831
1351.245,426.0,3.831
1351.843,426.5,3.831
1352.435,427.0,3.831
1353.025,427.5,3.831
1353.613,428.0,3.831
1354.204,428.5,3.831
1354.802,429.0,3.831
1355.388,429.5,3.831
1355.97,430.0,3.831
1356.562,430.5,3.831
1357.154,431.0,3.831
1357.743,431.5,3.831
1358.333,432.0,3.831
1358.924,432.5,3.831
1359.515,433.0,3.83
1360.106,433.5,3.83
1360.697,434.0,3.83
1361.286,434.5,3.83
1361.871,435.0,3.83
1362.458,435.5,3.83
1363.046,436.0,3.83
1363.642,436.5,3.83
1364.235,437.0,3.83
1364.822,437.5,3.83
1365.407,438.0,3.83
1365.993,438.5,3.83
1366.579,439.0,3.83
1367.166,439.5,3.83
1367.754,440.0,3.829
1368.349,440.5,3.829
1368.947,441.0,3.829
1369.528,441.5,3.829
1370.11,442.0,3.829
1370.7,442.5,3.829
1371.291,443.0,3.829
1371.884,443.5,3.829
1372.471,444.0,3.829
1373.056,444.5,3.829
1373.644,445.0,3.828
1374.23,445.5,3.828
1374.813,446.0,3.828
1375.397,446.5,3.828
1375.98,447.0,3.828
1376.578,447.5,3.828
1377.175,448.0,3.828
1377.768,448.5,3.828
1378.354,449.0,3.828
1378.936,449.5,3.827
1379.523,450.0,3.827
1380.111,450.5,3.827
1380.701,451.0,3.827
1381.287,451.5,3.827
1381.869,452.0,3.827
1382.452,452.5,3.827
1383.036,453.0,3.827
1383.628,453.5,3.826
1384.216,454.0,3.826
1384.797,454.5,3.826
1385.385,455.0,3.826
1385.977,455.5,3.826
1386.555,456.0,3.826
1387.135,456.5,3.826
1387.724,457.0,3.825
1388.307,457.5,3.825
1388.887,458.0,3.825
1389.476,458.5,3.825
1390.065,459.0,3.825
1390.647,459.5,3.824
1391.234,460.0,3.824
1391.827,460.5,3.824
1392.407,461.0,3.824
1392.983,461.5,3.824
1393.571,462.0,3.823
1394.16,462.5,3.823
1394.75,463.0,3.823
1395.333,463.5,3.823
1395.91,464.0,3.822
1396.494,464.5,3.822
1397.078,465.0,3.822
1397.654,465.5,3.822
1398.236,466.0,3.822
1398.83,466.5,3.821
1399.418,467.0,3.821
1400.002,467.5,3.821
1400.587,468.0,3.82
1401.172,468.5,3.82
1401.756,469.0,3.82
1402.34,469.5,3.82
1402.923,470.0,3.819
1403.506,470.5,3.819
1404.089,471.0,3.819
1404.673,471.5,3.818
1405.257,472.0,3.818
1405.841,472.5,3.817
1406.431,473.0,3.817
1407.022,473.5,3.817
1407.598,474.0,3.816
1408.175,474.5,3.816
1408.754,475.0,3.816
1409.337,475.5,3.816
1409.923,476.0,3.815
1410.503,476.5,3.814
1411.085,477.0,3.814
1411.673,477.5,3.813
1412.258,478.0,3.813
1412.839,478.5,3.813
1413.423,479.0,3.813
1414.008,479.5,3.812
1414.59,480.0,3.811
1415.174,480.5,3.811
1415.764,481.0,3.81
1416.348,481.5,3.81
1416.928,482.0,3.809
1417.501,482.5,3.808
1418.076,483.0,3.808
1418.67,483.5,3.807
1419.258,484.0,3.807
1419.84,484.5,3.806
1420.428,485.0,3.806
1421.019,485.5,3.805
1421.597,486.0,3.804
1422.176,486.5,3.804
1422.756,487.0,3.803
1423.338,487.5,3.803
1423.92,488.0,3.802
1424.506,488.5,3.801
1425.093,489.0,3.801
1425.674,489.5,3.8
1426.257,490.0,3.8
1426.845,490.5,3.799
1427.422,491.0,3.798
1427.994,491.5,3.797
1428.58,492.0,3.796
1429.166,492.5,3.796
1429.749,493.0,3.795
1430.331,493.5,3.794
1430.911,494.0,3.793
1431.489,494.5,3.793
1432.068,495.0,3.792
1432.653,495.5,3.791
1433.239,496.0,3.79
1433.826,496.5,3.789
1434.405,497.0,3.788
1434.98,497.5,3.787
1435.567,498.0,3.786
1436.153,498.5,3.785
1436.737,499.0,3.784
1437.318,499.5,3.783
1437.896,500.0,3.782
1438.477,500.5,3.782
1439.058,501.0,3.781
1439.638,501.5,3.78
1440.221,502.0,3.779
1440.809,502.5,3.777
1441.39,503.0,3.776
1441.967,503.5,3.775
1442.548,504.0,3.774
1443.13,504.5,3.774
1443.713,505.0,3.773
1444.292,505.5,3.771
1444.868,506.0,3.77
1445.457,506.5,3.769
1446.049,507.0,3.768
1446.629,507.5,3.767
1447.208,508.0,3.766
1447.785,508.5,3.764
1448.367,509.0,3.763
1448.952,509.5,3.762
1449.53,510.0,3.761
1450.109,510.5,3.76
1450.693,511.0,3.759
1451.281,511.5,3.757
1451.874,512.0,3.756
1452.451,512.5,3.755
1453.024,513.0,3.754
1453.605,513.5,3.753
1454.185,514.0,3.752
1454.763,514.5,3.75
1455.346,515.0,3.749
1455.933,515.5,3.748
1456.513,516.0,3.747
1457.092,516.5,3.746
1457.675,517.0,3.745
1458.258,517.5,3.743
1458.843,518.0,3.742
1459.426,518.5,3.741
1460.008,519.0,3.74
1460.596,519.5,3.739
1461.18,520.0,3.738
1461.753,520.5,3.736
1462.335,521.0,3.735
1462.924,521.5,3.733
1463.498,522.0,3.732
1464.071,522.5,3.731
1464.655,523.0,3.73
1465.239,523.5,3.729
1465.822,524.0,3.727
1466.401,524.5,3.726
1466.979,525.0,3.724
1467.564,525.5,3.723
1468.148,526.0,3.722
1468.729,526.5,3.72
1469.312,527.0,3.718
1469.898,527.5,3.717
1470.481,528.0,3.716
1471.064,528.5,3.715
1471.642,529.0,3.713
1472.224,529.5,3.712
1472.812,530.0,3.71
1473.392,530.5,3.709
1473.968,531.0,3.707
1474.55,531.5,3.705
1475.132,532.0,3.704
1475.712,532.5,3.703
1476.294,533.0,3.701
1476.876,533.5,3.699
1477.458,534.0,3.698
1478.039,534.5,3.696
1478.619,535.0,3.694
1479.201,535.5,3.692
1479.787,536.0,3.691
1480.369,536.5,3.689
1480.95,537.0,3.687
1481.537,537.5,3.685
1482.123,538.0,3.684
1482.701,538.5,3.682
1483.281,539.0,3.68
1483.863,539.5,3.678
1484.44,540.0,3.677
1485.016,540.5,3.675
1485.6,541.0,3.673
1486.186,541.5,3.67
1486.773,542.0,3.669
1487.36,542.5,3.667
1487.947,543.0,3.664
1488.53,543.5,3.662
1489.112,544.0,3.661
1489.697,544.5,3.658
1490.278,545.0,3.656
1490.855,545.5,3.654
1491.436,546.0,3.652
1492.02,546.5,3.65
1492.6,547.0,3.648
1493.184,547.5,3.645
1493.772,548.0,3.643
1494.356,548.5,3.641
1494.937,549.0,3.638
1495.522,549.5,3.636
1496.108,550.0,3.634
1496.694,550.5,3.631
1497.277,551.0,3.629
1497.856,551.5,3.627
1498.438,552.0,3.624
1499.021,552.5,3.621
1499.604,553.0,3.619
1500.188,553.5,3.616
1500.774,554.0,3.614
1501.357,554.5,3.611
1501.938,555.0,3.608
1502.522,555.5,3.606
1503.106,556.0,3.603
1503.691,556.5,3.601
1504.277,557.0,3.598
1504.863,557.5,3.595
1505.443,558.0,3.592
1506.021,558.5,3.589
1506.608,559.0,3.587
1507.196,559.5,3.584
1507.785,560.0,3.581
1508.372,560.5,3.578
1508.958,561.0,3.575
1509.547,561.5,3.572
1510.132,562.0,3.568
1510.709,562.5,3.565
1511.289,563.0,3.563
1511.874,563.5,3.56
1512.454,564.0,3.557
1513.034,564.5,3.554
1513.619,565.0,3.55
1514.204,565.5,3.547
1514.792,566.0,3.544
1515.383,566.5,3.541
1515.976,567.0,3.537
1516.559,567.5,3.534
1517.141,568.0,3.53
1517.724,568.5,3.527
1518.31,569.0,3.523
1518.899,569.5,3.52
1519.48,570.0,3.516
1520.059,570.5,3.513
1520.642,571.0,3.509
1521.226,571.5,3.506
1521.812,572.0,3.502
1522.401,572.5,3.498
1522.992,573.0,3.494
1523.579,573.5,3.491
1524.165,574.0,3.487
1524.744,574.5,3.483
1525.328,575.0,3.479
1525.915,575.5,3.476
1526.5,576.0,3.472
1527.085,576.5,3.467
1527.675,577.0,3.463
1528.264,577.5,3.459
1528.852,578.0,3.455
1529.438,578.5,3.451
1530.023,579.0,3.447
1530.607,579.5,3.443
1531.192,580.0,3.438
1531.776,580.5,3.434
1532.367,581.0,3.429
1532.962,581.5,3.425
1533.542,582.0,3.421
1534.124,582.5,3.416
1534.717,583.0,3.412
1535.306,583.5,3.408
1535.891,584.0,3.403
1536.483,584.5,3.398
1537.075,585.0,3.393
1537.658,585.5,3.389
1538.241,586.0,3.384
1538.823,586.5,3.379
1539.41,587.0,3.374
1539.999,587.5,3.369
1540.581,588.0,3.364
1541.166,588.5,3.36
1541.758,589.0,3.355
1542.348,589.5,3.35
1542.935,590.0,3.345
1543.528,590.5,3.339
1544.12,591.0,3.334
1544.711,591.5,3.329
1545.299,592.0,3.323
1545.885,592.5,3.318
1546.473,593.0,3.313
1547.061,593.5,3.307
1547.645,594.0,3.302
1548.232,594.5,3.297
1548.825,595.0,3.291
1549.413,595.5,3.285
1550.0,596.0,3.28
1550.588,596.5,3.274
1551.178,597.0,3.268
1551.77,597.5,3.262
1552.36,598.0,3.256
1552.948,598.5,3.251
1553.536,599.0,3.245
1554.123,599.5,3.239
1554.708,600.0,3.233
1555.299,600.5,3.227
1555.895,601.0,3.22
1556.485,601.5,3.214
1557.073,602.0,3.208
1557.66,602.5,3.202
1558.249,603.0,3.195
1558.84,603.5,3.189
1559.429,604.0,3.182
1560.018,604.5,3.176
1560.604,605.0,3.169
1561.192,605.5,3.163
1561.784,606.0,3.156
1562.375,606.5,3.149
1562.966,607.0,3.142
1563.56,607.5,3.135
1564.153,608.0,3.128
1564.739,608.5,3.121
1565.33,609.0,3.114
1565.924,609.5,3.107
1566.511,610.0,3.1
1567.098,610.5,3.093
1567.688,611.0,3.085
1568.278,611.5,3.078
1568.871,612.0,3.071
1569.463,612.5,3.063
1570.056,613.0,3.055
1570.65,613.5,3.048
1571.245,614.0,3.04
1571.843,614.5,3.032
1572.435,615.0,3.024
1573.025,615.5,3.016
1573.613,616.0,3.008
1574.202,616.5,3.0
1574.793,617.0,2.992
1575.387,617.5,2.984
1575.983,618.0,2.975
1576.574,618.5,2.967
1577.165,619.0,2.959
1577.757,619.5,2.95
1578.349,620.0,2.942
1578.941,620.5,2.933
1579.538,621.0,2.924
1580.135,621.5,2.915
1580.726,622.0,2.906
1581.315,622.5,2.897
1581.902,623.0,2.888
1582.495,623.5,2.88
1583.089,624.0,2.871
1583.692,624.5,2.861
1584.289,625.0,2.852
1584.882,625.5,2.843
1585.476,626.0,2.833
1586.07,626.5,2.824
1586.664,627.0,2.814
1587.261,627.5,2.805
1587.863,628.0,2.794
1588.45,628.5,2.785
1589.035,629.0,2.775
1589.636,629.5,2.766
1590.234,630.0,2.756
1590.829,630.5,2.746
1591.424,631.0,2.736
1592.019,631.5,2.726
1592.613,632.0,2.716
1593.208,632.5,2.705
1593.805,633.0,2.695
1594.406,633.5,2.684
1595.007,634.0,2.674
1595.607,634.5,2.663
1596.201,635.0,2.653
1596.785,635.5,2.643
1597.375,636.0,2.632
1597.969,636.5,2.622
1598.566,637.0,2.611
1599.164,637.5,2.6
1599.768,638.0,2.588
1600.366,638.5,2.577
1600.96,639.0,2.567
1601.56,639.5,2.556
1602.159,640.0,2.545
1602.75,640.5,2.534
1603.342,641.0,2.522
1603.935,641.5,2.511
1604.534,642.0,2.5
1605.134,642.5,2.488
1605.734,643.0,2.477
1606.332,643.5,2.466
1606.928,644.0,2.454
1607.529,644.5,2.442
1608.131,645.0,2.431
1608.731,645.5,2.419
1609.329,646.0,2.407
1609.925,646.5,2.396
1610.524,647.0,2.384
1611.124,647.5,2.372
1611.723,648.0,2.36
1612.324,648.5,2.348
1612.925,649.0,2.335
1613.527,649.5,2.323
1614.128,650.0,2.31
1614.723,650.5,2.299
1615.323,651.0,2.286
1615.924,651.5,2.274
1616.528,652.0,2.261
1617.13,652.5,2.248
1617.726,653.0,2.235
1618.328,653.5,2.222
1618.934,654.0,2.209
1619.531,654.5,2.196
1620.128,655.0,2.183
1620.731,655.5,2.17
1621.333,656.0,2.157
1621.934,656.5,2.143
1622.538,657.0,2.13
1623.143,657.5,2.117
1623.748,658.0,2.102
1624.351,658.5,2.088
1624.952,659.0,2.074
1625.561,659.5,2.06
1626.169,660.0,2.046
1626.772,660.5,2.032
1627.376,661.0,2.018
1627.979,661.5,2.003
1628.577,662.0,1.988
1629.176,662.5,1.974
1629.779,663.0,1.959
1630.383,663.5,1.944
1630.988,664.0,1.929
1631.588,664.5,1.914
1632.189,665.0,1.898
1632.794,665.5,1.882
1633.402,666.0,1.867
1634.012,666.5,1.851
1634.62,667.0,1.835
1635.227,667.5,1.819
1635.829,668.0,1.803
1636.433,668.5,1.786
1637.038,669.0,1.77
1637.639,669.5,1.754
1638.241,670.0,1.737
1638.845,670.5,1.72
1639.453,671.0,1.703
1640.061,671.5,1.686
1640.662,672.0,1.669
1641.265,672.5,1.652
1641.872,673.0,1.635
1642.476,673.5,1.618
1643.08,674.0,1.601
1643.686,674.5,1.583
1644.29,675.0,1.565
1644.891,675.5,1.547
1645.49,676.0,1.53
1646.091,676.5,1.512
1646.699,677.0,1.495
1647.308,677.5,1.477
1647.919,678.0,1.459
1648.514,678.5,1.442
1649.109,679.0,1.425
1649.713,679.5,1.407
1650.313,680.0,1.39
1650.91,680.5,1.373
1651.507,681.0,1.356
1652.104,681.5,1.339
1652.712,682.0,1.322
1653.314,682.5,1.306
1653.911,683.0,1.289
1654.507,683.5,1.273
1655.103,684.0,1.257
1655.7,684.5,1.242
1656.296,685.0,1.226
1656.892,685.5,1.211
1657.491,686.0,1.196
1658.09,686.5,1.181
1658.683,687.0,1.167
1659.28,687.5,1.153
1659.881,688.0,1.14
1660.471,688.5,1.127
1661.059,689.0,1.115
1661.653,689.5,1.102
1662.247,690.0,1.09
1662.84,690.5,1.078
1663.439,691.0,1.068
1664.04,691.5,1.057
1664.633,692.0,1.047
1665.227,692.5,1.038
1665.823,693.0,1.029
1666.422,693.5,1.02
1667.02,694.0,1.011
1667.616,694.5,1.004
1668.209,695.0,0.997
1668.798,695.5,0.99
1669.394,696.0,0.984
1669.995,696.5,0.977
1670.598,697.0,0.971
1671.196,697.5,0.965
1671.786,698.0,0.961
1672.384,698.5,0.956
1672.987,699.0,0.952
1673.588,699.5,0.948
1674.187,700.0,0.944
1674.783,700.5,0.94
1675.381,701.0,0.937
1675.98,701.5,0.934
1676.583,702.0,0.931
1677.186,702.5,0.928
1677.784,703.0,0.925
1678.388,703.5,0.922
1678.995,704.0,0.919
1679.59,704.5,0.917
1680.187,705.0,0.915
1680.788,705.5,0.913
1681.389,706.0,0.91
1681.99,706.5,0.908
1682.591,707.0,0.906
1683.193,707.5,0.904
1683.794,708.0,0.903
1684.401,708.5,0.901
1685.009,709.0,0.899
1685.603,709.5,0.897
1686.201,710.0,0.895
1686.809,710.5,0.894
1687.41,711.0,0.892
1688.007,711.5,0.891
1688.613,712.0,0.889
1689.218,712.5,0.887
1689.823,713.0,0.886
1690.425,713.5,0.884
1691.026,714.0,0.883
1691.627,714.5,0.881
1692.228,715.0,0.88
1692.83,715.5,0.878
1693.433,716.0,0.877
1694.035,716.5,0.875
1694.642,717.0,0.874
1695.247,717.5,0.873
1695.848,718.0,0.871
1696.446,718.5,0.87
1697.042,719.0,0.868
1697.648,719.5,0.867
1698.257,720.0,0.865
1698.869,720.5,0.864
1699.472,721.0,0.863
1700.074,721.5,0.862
1700.678,722.0,0.861
1701.283,722.5,0.859
1701.886,723.0,0.857
1702.493,723.5,0.856
1703.099,724.0,0.855
1703.698,724.5,0.854
1704.3,725.0,0.852
1704.903,725.5,0.851
1705.51,726.0,0.85
1706.117,726.5,0.849
1706.72,727.0,0.848
1707.326,727.5,0.846
1707.935,728.0,0.845
1708.539,728.5,0.844
1709.143,729.0,0.843
1709.747,729.5,0.842
1710.348,730.0,0.84
1710.945,730.5,0.839
1711.558,731.0,0.838
1712.17,731.5,0.837
1712.772,732.0,0.835
1713.375,732.5,0.834
1713.977,733.0,0.833
1714.587,733.5,0.832
1715.195,734.0,0.831
1715.799,734.5,0.829
1716.404,735.0,0.828
1717.01,735.5,0.827
1717.613,736.0,0.826
1718.217,736.5,0.825
1718.825,737.0,0.823
1719.428,737.5,0.822
1720.029,738.0,0.821
1720.637,738.5,0.82
1721.242,739.0,0.819
1721.841,739.5,0.817
1722.452,740.0,0.817
1723.066,740.5,0.816
1723.669,741.0,0.815
1724.276,741.5,0.813
1724.888,742.0,0.812
1725.495,742.5,0.811
1726.1,743.0,0.81
1726.706,743.5,0.809
1727.31,744.0,0.808
1727.913,744.5,0.807
1728.517,745.0,0.806
1729.122,745.5,0.805
1729.732,746.0,0.804
1730.337,746.5,0.802
1730.938,747.0,0.801
1731.545,747.5,0.8
1732.155,748.0,0.8
1732.771,748.5,0.798
1733.381,749.0,0.797
1733.987,749.5,0.796
1734.591,750.0,0.795
1735.196,750.5,0.795
1735.803,751.0,0.793
1736.409,751.5,0.792
1737.013,752.0,0.791
1737.616,752.5,0.79
1738.222,753.0,0.79
1738.834,753.5,0.788
1739.44,754.0,0.788
1740.046,754.5,0.787
1740.662,755.0,0.786
1741.273,755.5,0.785
1741.877,756.0,0.784
1742.486,756.5,0.783
1743.096,757.0,0.782
1743.703,757.5,0.781
1744.306,758.0,0.78
1744.906,758.5,0.779
1745.519,759.0,0.778
1746.132,759.5,0.778
1746.74,760.0,0.777
1747.345,760.5,0.776
1747.948,761.0,0.775
1748.555,761.5,0.774
1749.165,762.0,0.774
1749.782,762.5,0.772
1750.385,763.0,0.772
1750.982,763.5,0.771
1751.594,764.0,0.77
1752.208,764.5,0.77
1752.826,765.0,0.768
1753.43,765.5,0.768
1754.03,766.0,0.767
1754.637,766.5,0.766
1755.243,767.0,0.766
1755.849,767.5,0.764
1756.454,768.0,0.764
1757.06,768.5,0.763
1757.671,769.0,0.762
1758.28,769.5,0.762
1758.887,770.0,0.761
1759.5,770.5,0.76
1760.113,771.0,0.76
1760.721,771.5,0.759
1761.329,772.0,0.758
1761.936,772.5,0.757
1762.544,773.0,0.756
1763.15,773.5,0.756
1763.751,774.0,0.755
1764.357,774.5,0.755
1764.967,775.0,0.754
1765.573,775.5,0.753
1766.179,776.0,0.753
1766.785,776.5,0.752
1767.398,777.0,0.752
1768.014,777.5,0.751
1768.617,778.0,0.75
1769.221,778.5,0.749
1769.83,779.0,0.748
1770.439,779.5,0.748
1771.049,780.0,0.747
1771.656,780.5,0.746
1772.264,781.0,0.746
1772.871,781.5,0.745
1773.481,782.0,0.745
1774.092,782.5,0.744
1774.704,783.0,0.743
1775.313,783.5,0.743
1775.921,784.0,0.742
1776.525,784.5,0.741
1777.13,785.0,0.741
1777.737,785.5,0.74
1778.346,786.0,0.74
1778.958,786.5,0.739
1779.566,787.0,0.738
1780.175,787.5,0.738
1780.788,788.0,0.737
1781.398,788.5,0.737
1782.007,789.0,0.737
1782.61,789.5,0.736
1783.216,790.0,0.736
1783.825,790.5,0.735
1784.428,791.0,0.735
1785.03,791.5,0.734
1785.639,792.0,0.733
1786.249,792.5,0.733
1786.863,793.0,0.732
1787.469,793.5,0.732
1788.074,794.0,0.731
1788.69,794.5,0.73
1789.301,795.0,0.73
1789.908,795.5,0.729
1790.511,796.0,0.729
1791.116,796.5,0.729
1791.726,797.0,0.728
1792.336,797.5,0.728
1792.945,798.0,0.727
1793.552,798.5,0.726
1794.156,799.0,0.726
1794.758,799.5,0.725
1795.367,800.0,0.725
1795.98,800.5,0.724
1796.582,801.0,0.724
1797.187,801.5,0.724
1797.799,802.0,0.723
1798.406,802.5,0.723
1799.01,803.0,0.722
1799.624,803.5,0.721
1800.233,804.0,0.721
1800.835,804.5,0.72
1801.446,805.0,0.72
1802.059,805.5,0.72
1802.665,806.0,0.719
1803.273,806.5,0.719
1803.882,807.0,0.718
1804.49,807.5,0.718
1805.098,808.0,0.717
1805.704,808.5,0.717
1806.31,809.0,0.717
1806.915,809.5,0.716
1807.522,810.0,0.715
1808.131,810.5,0.715
1808.741,811.0,0.714
1809.345,811.5,0.714
1809.944,812.0,0.713
1810.549,812.5,0.713
1811.156,813.0,0.713
1811.768,813.5,0.712
1812.374,814.0,0.712
1812.978,814.5,0.711
1813.586,815.0,0.711
1814.195,815.5,0.711
1814.808,816.0,0.71
1815.418,816.5,0.71
1816.026,817.0,0.709
1816.625,817.5,0.708
1817.23,818.0,0.708
1817.845,818.5,0.708
1818.452,819.0,0.708
1819.056,819.5,0.707
1819.666,820.0,0.706
1820.273,820.5,0.706
1820.877,821.0,0.705
1821.485,821.5,0.705
1822.093,822.0,0.705
1822.698,822.5,0.704
1823.304,823.0,0.704
1823.912,823.5,0.703
1824.523,824.0,0.703
1825.132,824.5,0.703
1825.734,825.0,0.702
1826.339,825.5,0.702
1826.945,826.0,0.701
1827.552,826.5,0.701
1828.159,827.0,0.701
1828.772,827.5,0.7
1829.376,828.0,0.7
1829.976,828.5,0.699
1830.587,829.0,0.699
1831.195,829.5,0.699
1831.799,830.0,0.698
1832.402,830.5,0.698
1833.005,831.0,0.697
1833.614,831.5,0.697
1834.222,832.0,0.697
1834.83,832.5,0.696
1835.443,833.0,0.696
1836.058,833.5,0.696
1836.664,834.0,0.695
1837.272,834.5,0.695
1837.881,835.0,0.694
1838.484,835.5,0.694
1839.086,836.0,0.694
1839.695,836.5,0.693
1840.303,837.0,0.693
1840.91,837.5,0.692
1841.518,838.0,0.692
1842.126,838.5,0.692
1842.732,839.0,0.691
1843.34,839.5,0.691
1843.95,840.0,0.691
1844.56,840.5,0.69
1845.168,841.0,0.69
1845.774,841.5,0.689
1846.379,842.0,0.689
1846.985,842.5,0.689
1847.597,843.0,0.688
1848.206,843.5,0.688
1848.807,844.0,0.687
1849.417,844.5,0.687
1850.029,845.0,0.687
1850.63,845.5,0.686
1851.233,846.0,0.686
1851.84,846.5,0.686
1852.45,847.0,0.686
1853.061,847.5,0.685
1853.669,848.0,0.684
1854.277,848.5,0.684
1854.886,849.0,0.684
1855.493,849.5,0.684
1856.099,850.0,0.683
1856.7,850.5,0.683
1857.306,851.0,0.683
1857.918,851.5,0.682
1858.524,852.0,0.681
1859.128,852.5,0.681
1859.732,853.0,0.681
1860.341,853.5,0.681
1860.955,854.0,0.68
1861.559,854.5,0.68
1862.162,855.0,0.68
1862.764,855.5,0.679
1863.372,856.0,0.679
1863.984,856.5,0.679
1864.585,857.0,0.678
1865.188,857.5,0.678
1865.794,858.0,0.678
1866.408,858.5,0.678
1867.026,859.0,0.677
1867.624,859.5,0.676
1868.227,860.0,0.676
1868.839,860.5,0.676
1869.446,861.0,0.676
1870.051,861.5,0.675
1870.654,862.0,0.675
1871.258,862.5,0.675
1871.863,863.0,0.674
1872.469,863.5,0.674
1873.074,864.0,0.674
1873.682,864.5,0.673
1874.29,865.0,0.673
1874.898,865.5,0.673
1875.503,866.0,0.672
1876.108,866.5,0.672
1876.716,867.0,0.671
1877.323,867.5,0.671
1877.93,868.0,0.671
1878.54,868.5,0.67
1879.15,869.0,0.67
1879.754,869.5,0.67
1880.357,870.0,0.67
1880.961,870.5,0.669
1881.567,871.0,0.669
1882.172,871.5,0.669
1882.773,872.0,0.668
1883.377,872.5,0.668
1883.984,873.0,0.668
1884.598,873.5,0.667
1885.207,874.0,0.667
1885.807,874.5,0.667
1886.409,875.0,0.667
1887.013,875.5,0.666
1887.622,876.0,0.666
1888.229,876.5,0.666
1888.832,877.0,0.665
1889.435,877.5,0.665
1890.039,878.0,0.664
1890.646,878.5,0.664
1891.251,879.0,0.664
1891.852,879.5,0.663
1892.459,880.0,0.663
1893.068,880.5,0.663
1893.68,881.0,0.662
1894.286,881.5,0.662
1894.888,882.0,0.662
1895.492,882.5,0.662
1896.096,883.0,0.661
1896.694,883.5,0.661
1897.299,884.0,0.661
1897.913,884.5,0.66
1898.517,885.0,0.66
1899.12,885.5,0.66
1899.729,886.0,0.659
1900.333,886.5,0.659
1900.935,887.0,0.659
1901.545,887.5,0.658
1902.152,888.0,0.658
1902.751,888.5,0.658
1903.354,889.0,0.658
1903.96,889.5,0.657
1904.568,890.0,0.657
1905.175,890.5,0.657
1905.778,891.0,0.656
1906.381,891.5,0.656
1906.983,892.0,0.656
1907.588,892.5,0.655
1908.194,893.0,0.655
1908.799,893.5,0.655
1909.403,894.0,0.655
1910.006,894.5,0.655
1910.608,895.0,0.654
1911.213,895.5,0.654
1911.82,896.0,0.654
1912.435,896.5,0.654
1913.05,897.0,0.653
1913.642,897.5,0.653
1914.239,898.0,0.653
1914.844,898.5,0.652
1915.453,899.0,0.652
1916.063,899.5,0.652
1916.665,900.0,0.651
1917.269,900.5,0.651
1917.875,901.0,0.651
1918.48,901.5,0.651
1919.084,902.0,0.65
1919.683,902.5,0.65
1920.289,903.0,0.65
1920.902,903.5,0.649
1921.506,904.0,0.649
1922.108,904.5,0.649
1922.707,905.0,0.648
1923.309,905.5,0.648
1923.912,906.0,0.648
1924.515,906.5,0.648
1925.119,907.0,0.648
1925.725,907.5,0.647
1926.329,908.0,0.647
1926.931,908.5,0.647
1927.534,909.0,0.646
1928.138,909.5,0.646
1928.741,910.0,0.646
1929.348,910.5,0.646
1929.957,911.0,0.645
1930.553,911.5,0.645
1931.15,912.0,0.645
1931.755,912.5,0.645
1932.36,913.0,0.645
1932.965,913.5,0.644
1933.57,914.0,0.644
1934.173,914.5,0.644
1934.776,915.0,0.643
1935.381,915.5,0.643
1935.988,916.0,0.643
1936.594,916.5,0.642
1937.198,917.0,0.642
1937.799,917.5,0.642
1938.398,918.0,0.642
1938.996,918.5,0.642
1939.6,919.0,0.641
1940.203,919.5,0.641
1940.807,920.0,0.641
1941.41,920.5,0.641
1942.013,921.0,0.64
1942.623,921.5,0.64
1943.228,922.0,0.64
1943.825,922.5,0.64
1944.426,923.0,0.64
1945.029,923.5,0.639
1945.634,924.0,0.639
1946.239,924.5,0.639
1946.844,925.0,0.638
1947.448,925.5,0.638
1948.052,926.0,0.638
1948.661,926.5,0.638
1949.266,927.0,0.638
1949.865,927.5,0.637
1950.463,928.0,0.637
1951.062,928.5,0.637
1951.668,929.0,0.636
1952.273,929.5,0.636
1952.876,930.0,0.636
1953.477,930.5,0.636
1954.078,931.0,0.636
1954.678,931.5,0.635
1955.28,932.0,0.635
1955.883,932.5,0.635
1956.49,933.0,0.635
1957.096,933.5,0.634
1957.695,934.0,0.634
1958.295,934.5,0.634
1958.894,935.0,0.634
1959.496,935.5,0.634
1960.098,936.0,0.633
1960.701,936.5,0.633
1961.304,937.0,0.633
1961.906,937.5,0.633
1962.512,938.0,0.632
1963.117,938.5,0.632
1963.718,939.0,0.632
1964.321,939.5,0.632
1964.926,940.0,0.632
1965.529,940.5,0.631
1966.131,941.0,0.631
1966.733,941.5,0.631
1967.335,942.0,0.631
1967.936,942.5,0.631
1968.533,943.0,0.63
1969.13,943.5,0.63
1969.734,944.0,0.63
1970.338,944.5,0.63
1970.941,945.0,0.63
1971.544,945.5,0.629
1972.146,946.0,0.629
1972.746,946.5,0.629
1973.347,947.0,0.629
1973.948,947.5,0.629
1974.545,948.0,0.628
1975.144,948.5,0.628
1975.752,949.0,0.628
1976.354,949.5,0.628
1976.952,950.0,0.628
1977.558,950.5,0.627
1978.161,951.0,0.627
1978.759,951.5,0.627
1979.36,952.0,0.627
1979.965,952.5,0.627
1980.561,953.0,0.626
1981.161,953.5,0.626
1981.769,954.0,0.626
1982.373,954.5,0.626
1982.974,955.0,0.626
1983.579,955.5,0.625
1984.182,956.0,0.625
1984.779,956.5,0.625
1985.375,957.0,0.625
1985.971,957.5,0.625
1986.573,958.0,0.624
1987.175,958.5,0.624
1987.776,959.0,0.624
1988.379,959.5,0.624
1988.982,960.0,0.624
1989.584,960.5,0.624
1990.186,961.0,0.624
1990.791,961.5,0.623
1991.394,962.0,0.623
1991.998,962.5,0.623
1992.598,963.0,0.623
1993.197,963.5,0.623
1993.794,964.0,0.623
1994.394,964.5,0.623
1994.998,965.0,0.622
1995.602,965.5,0.622
1996.207,966.0,0.622
1996.811,966.5,0.622
1997.411,967.0,0.622
1998.008,967.5,0.621
1998.605,968.0,0.621
1999.203,968.5,0.621
1999.802,969.0,0.621
2000.404,969.5,0.621
2001.007,970.0,0.621
2001.608,970.5,0.62
2002.209,971.0,0.62
2002.81,971.5,0.62
2003.413,972.0,0.62
2004.016,972.5,0.62
2004.623,973.0,0.62
2005.226,973.5,0.62
2005.821,974.0,0.619
2006.425,974.5,0.619
2007.031,975.0,0.619
2007.628,975.5,0.619
2008.227,976.0,0.619
2008.832,976.5,0.619
2009.429,977.0,0.619
2010.023,977.5,0.618
2010.631,978.0,0.618
2011.235,978.5,0.618
2011.836,979.0,0.618
2012.435,979.5,0.618
2013.035,980.0,0.618
2013.639,980.5,0.617
2014.239,981.0,0.617
2014.835,981.5,0.617
2015.436,982.0,0.617
2016.04,982.5,0.617
2016.644,983.0,0.617
2017.246,983.5,0.617
2017.847,984.0,0.616
2018.448,984.5,0.616
2019.048,985.0,0.616
2019.651,985.5,0.616
2020.253,986.0,0.616
2020.854,986.5,0.616
2021.454,987.0,0.616
2022.053,987.5,0.616
2022.659,988.0,0.615
2023.263,988.5,0.615
2023.865,989.0,0.615
2024.464,989.5,0.615
2025.062,990.0,0.615
2025.663,990.5,0.615
2026.264,991.0,0.615
2026.867,991.5,0.614
2027.465,992.0,0.614
2028.063,992.5,0.614
2028.668,993.0,0.614
2029.27,993.5,0.614
2029.868,994.0,0.614
2030.472,994.5,0.614
2031.076,995.0,0.613
2031.678,995.5,0.613
2032.277,996.0,0.613
2032.871,996.5,0.613
2033.474,997.0,0.613
2034.079,997.5,0.613
2034.675,998.0,0.613
2035.275,998.5,0.613
2035.877,999.0,0.612
2036.481,999.5,0.612
2037.084,1000.0,0.612
2037.677,1000.5,0.612
2038.275,1001.0,0.612
2038.877,1001.5,0.612
2039.481,1002.0,0.612
2040.084,1002.5,0.611
2040.684,1003.0,0.611
2041.286,1003.5,0.611
2041.89,1004.0,0.611
2042.487,1004.5,0.611
2043.084,1005.0,0.611
2043.686,1005.5,0.611
2044.287,1006.0,0.611
2044.887,1006.5,0.61
2045.487,1007.0,0.61
2046.087,1007.5,0.61
2046.688,1008.0,0.61
2047.288,1008.5,0.61
2047.884,1009.0,0.61
2048.484,1009.5,0.61
2049.085,1010.0,0.609
2049.689,1010.5,0.609
2050.292,1011.0,0.609
2050.894,1011.5,0.609
2051.492,1012.0,0.609
2052.089,1012.5,0.609
2052.687,1013.0,0.609
2053.29,1013.5,0.609
2053.898,1014.0,0.608
2054.5,1014.5,0.608
2055.101,1015.0,0.608
2055.701,1015.5,0.608
2056.301,1016.0,0.608
2056.902,1016.5,0.608
2057.5,1017.0,0.608
2058.099,1017.5,0.608
2058.7,1018.0,0.607
2059.301,1018.5,0.607
2059.904,1019.0,0.607
2060.501,1019.5,0.607
2061.097,1020.0,0.607
2061.699,1020.5,0.607
2062.299,1021.0,0.607
2062.898,1021.5,0.607
2063.501,1022.0,0.606
2064.104,1022.5,0.606
2064.704,1023.0,0.606
2065.302,1023.5,0.606
2065.899,1024.0,0.606
2066.495,1024.5,0.606
2067.093,1025.0,0.606
2067.694,1025.5,0.606
2068.294,1026.0,0.606
2068.895,1026.5,0.605
2069.497,1027.0,0.605
2070.098,1027.5,0.605
2070.699,1028.0,0.605
2071.296,1028.5,0.605
2071.892,1029.0,0.605
2072.491,1029.5,0.605
2073.092,1030.0,0.605
2073.696,1030.5,0.604
2074.297,1031.0,0.604
2074.895,1031.5,0.604
2075.496,1032.0,0.604
2076.099,1032.5,0.604
2076.702,1033.0,0.604
2077.303,1033.5,0.604
2077.901,1034.0,0.604
2078.501,1034.5,0.603
2079.101,1035.0,0.603
2079.704,1035.5,0.603
2080.304,1036.0,0.603
2080.901,1036.5,0.603
2081.496,1037.0,0.603
2082.092,1037.5,0.603
2082.695,1038.0,0.603
2083.296,1038.5,0.603
2083.896,1039.0,0.603
2084.493,1039.5,0.603
2085.092,1040.0,0.602
2085.694,1040.5,0.602
2086.296,1041.0,0.602
2086.899,1041.5,0.602
2087.492,1042.0,0.602
2088.084,1042.5,0.602
2088.686,1043.0,0.602
2089.289,1043.5,0.602
2089.893,1044.0,0.601
2090.493,1044.5,0.601
2091.093,1045.0,0.601
2091.691,1045.5,0.601
2092.286,1046.0,0.601
2092.878,1046.5,0.601
2093.479,1047.0,0.601
2094.082,1047.5,0.6
2094.677,1048.0,0.6
2095.275,1048.5,0.6
2095.875,1049.0,0.6
2096.477,1049.5,0.6
2097.079,1050.0,0.6
2097.678,1050.5,0.6
2098.277,1051.0,0.6
2098.876,1051.5,0.599
2099.468,1052.0,0.599
2100.059,1052.5,0.599
2100.665,1053.0,0.599
2101.268,1053.5,0.599
2101.87,1054.0,0.599
2102.47,1054.5,0.599
2103.062,1055.0,0.599
2103.597,1055.5,0.599
2104.298,1056.0,0.599
2105.504,1056.5,0.598
2106.558,1057.0,0.598
2107.491,1057.5,0.598
2108.419,1058.0,0.598
2109.366,1058.5,0.598
2110.347,1059.0,0.598
2111.38,1059.5,0.597
2112.462,1060.0,0.597
2113.61,1060.5,0.597
2114.816,1061.0,0.597
2116.07,1061.5,0.596
2117.423,1062.0,0.596
2118.831,1062.5,0.596
2120.347,1063.0,0.596
2124.0,1064.08,0.595
2134.0,1066.336,0.594
2144.0,1067.838,0.593
2154.0,1068.859,0.592
2164.0,1069.569,0.591
2174.0,1070.082,0.59
2184.0,1070.466,0.59
2194.0,1070.751,0.589
2204.0,1070.981,0.589
2214.0,1071.155,0.588
2224.0,1071.29,0.587
2234.0,1071.414,0.587
2244.0,1071.525,0.586
2254.0,1071.609,0.586
2264.0,1071.68,0.585
2274.0,1071.74,0.585
2284.0,1071.795,0.584
2294.0,1071.85,0.584
2304.0,1071.894,0.583
2314.0,1071.926,0.583
2324.0,1071.961,0.583
2334.0,1071.983,0.582
2344.0,1072.007,0.582
2354.0,1072.026,0.581
2364.0,1072.048,0.581
2374.0,1072.069,0.58
2384.0,1072.078,0.58
2394.0,1072.089,0.58
2404.0,1072.093,0.579
2414.0,1072.112,0.579
2424.0,1072.104,0.579
