Time (s),Temperature (K),Mass (mg)
0.0,304.986,1.0
3.0,304.995,0.999
12.0,304.944,0.998
20.0,304.907,0.997
28.0,304.871,0.996
38.0,304.818,0.995
49.0,304.796,0.994
60.0,304.775,0.993
73.0,304.733,0.992
87.0,304.728,0.991
103.0,304.688,0.99
121.0,304.659,0.989
143.0,304.625,0.988
167.0,304.599,0.987
199.0,304.571,0.986
239.0,304.537,0.985
286.0,304.505,0.984
339.0,304.486,0.983
417.0,304.46,0.982
547.0,304.439,0.981
841.0,304.452,0.98
1200.0,304.456,0.979
1204.457,305.0,0.978
1205.729,305.5,0.978
1206.696,306.0,0.977
1207.546,306.5,0.977
1208.363,307.0,0.977
1209.168,307.5,0.977
1209.933,308.0,0.978
1210.64,308.5,0.978
1211.327,309.0,0.978
1212.0,309.5,0.979
1212.661,310.0,0.98
1213.303,310.5,0.98
1213.925,311.0,0.98
1214.559,311.5,0.981
1215.187,312.0,0.981
1215.799,312.5,0.982
1216.406,313.0,0.982
1217.01,313.5,0.982
1217.608,314.0,0.982
1218.204,314.5,0.982
1218.798,315.0,0.982
1219.392,315.5,0.982
1219.986,316.0,0.982
1220.571,316.5,0.982
1221.158,317.0,0.982
1221.754,317.5,0.982
1222.351,318.0,0.982
1222.95,318.5,0.982
1223.533,319.0,0.982
1224.116,319.5,0.982
1224.705,320.0,0.982
1225.3,320.5,0.982
1225.899,321.0,0.982
1226.489,321.5,0.982
1227.077,322.0,0.981
1227.664,322.5,0.981
1228.252,323.0,0.981
1228.844,323.5,0.981
1229.429,324.0,0.981
1230.012,324.5,0.98
1230.622,325.0,0.98
1231.222,325.5,0.98
1231.805,326.0,0.98
1232.396,326.5,0.98
1232.992,327.0,0.98
1233.578,327.5,0.979
1234.162,328.0,0.979
1234.74,328.5,0.979
1235.331,329.0,0.979
1235.933,329.5,0.979
1236.525,330.0,0.979
1237.12,330.5,0.979
1237.724,331.0,0.978
1238.327,331.5,0.978
1238.928,332.0,0.978
1239.508,332.5,0.978
1240.089,333.0,0.978
1240.69,333.5,0.978
1241.291,334.0,0.978
1241.893,334.5,0.978
1242.484,335.0,0.978
1243.073,335.5,0.978
1243.668,336.0,0.977
1244.267,336.5,0.977
1244.871,337.0,0.977
1245.465,337.5,0.977
1246.058,338.0,0.977
1246.662,338.5,0.977
1247.26,339.0,0.977
1247.852,339.5,0.977
1248.449,340.0,0.977
1249.048,340.5,0.977
1249.647,341.0,0.976
1250.244,341.5,0.976
1250.836,342.0,0.976
1251.427,342.5,0.976
1252.017,343.0,0.976
1252.62,343.5,0.976
1253.222,344.0,0.976
1253.82,344.5,0.976
1254.419,345.0,0.976
1255.018,345.5,0.976
1255.615,346.0,0.975
1256.214,346.5,0.975
1256.815,347.0,0.975
1257.416,347.5,0.975
1258.018,348.0,0.975
1258.612,348.5,0.975
1259.205,349.0,0.975
1259.796,349.5,0.975
1260.4,350.0,0.975
1261.012,350.5,0.974
1261.604,351.0,0.974
1262.198,351.5,0.974
1262.796,352.0,0.974
1263.392,352.5,0.974
1263.987,353.0,0.974
1264.591,353.5,0.974
1265.197,354.0,0.974
1265.803,354.5,0.973
1266.399,355.0,0.973
1266.988,355.5,0.973
1267.596,356.0,0.973
1268.199,356.5,0.973
1268.791,357.0,0.973
1269.396,357.5,0.973
1270.009,358.0,0.973
1270.6,358.5,0.972
1271.196,359.0,0.972
1271.8,359.5,0.972
1272.404,360.0,0.972
1273.007,360.5,0.972
1273.601,361.0,0.972
1274.194,361.5,0.972
1274.786,362.0,0.972
1275.387,362.5,0.972
1275.993,363.0,0.971
1276.592,363.5,0.971
1277.192,364.0,0.971
1277.793,364.5,0.971
1278.393,365.0,0.971
1278.993,365.5,0.971
1279.597,366.0,0.971
1280.196,366.5,0.971
1280.785,367.0,0.971
1281.388,367.5,0.971
1281.998,368.0,0.971
1282.594,368.5,0.97
1283.192,369.0,0.97
1283.79,369.5,0.97
1284.395,370.0,0.97
1285.002,370.5,0.97
1285.6,371.0,0.97
1286.197,371.5,0.97
1286.793,372.0,0.97
1287.389,372.5,0.97
1287.985,373.0,0.97
1288.58,373.5,0.97
1289.179,374.0,0.97
1289.787,374.5,0.97
1290.389,375.0,0.97
1290.988,375.5,0.969
1291.593,376.0,0.969
1292.193,376.5,0.969
1292.786,377.0,0.969
1293.386,377.5,0.969
1293.988,378.0,0.969
1294.592,378.5,0.969
1295.192,379.0,0.969
1295.783,379.5,0.969
1296.379,380.0,0.969
1296.976,380.5,0.969
1297.571,381.0,0.969
1298.168,381.5,0.969
1298.773,382.0,0.969
1299.373,382.5,0.969
1299.97,383.0,0.969
1300.571,383.5,0.969
1301.172,384.0,0.969
1301.773,384.5,0.969
1302.369,385.0,0.969
1302.963,385.5,0.969
1303.554,386.0,0.969
1304.147,386.5,0.969
1304.749,387.0,0.969
1305.352,387.5,0.969
1305.954,388.0,0.969
1306.545,388.5,0.969
1307.141,389.0,0.969
1307.752,389.5,0.969
1308.35,390.0,0.969
1308.939,390.5,0.969
1309.535,391.0,0.969
1310.132,391.5,0.969
1310.731,392.0,0.969
1311.325,392.5,0.969
1311.914,393.0,0.969
1312.519,393.5,0.969
1313.122,394.0,0.969
1313.708,394.5,0.968
1314.306,395.0,0.968
1314.915,395.5,0.968
1315.505,396.0,0.968
1316.093,396.5,0.968
1316.691,397.0,0.968
1317.289,397.5,0.968
1317.888,398.0,0.968
1318.484,398.5,0.968
1319.081,399.0,0.968
1319.684,399.5,0.968
1320.281,400.0,0.968
1320.87,400.5,0.968
1321.464,401.0,0.968
1322.06,401.5,0.968
1322.66,402.0,0.968
1323.255,402.5,0.968
1323.842,403.0,0.968
1324.441,403.5,0.968
1325.045,404.0,0.968
1325.643,404.5,0.968
1326.237,405.0,0.968
1326.826,405.5,0.968
1327.42,406.0,0.968
1328.017,406.5,0.968
1328.613,407.0,0.968
1329.208,407.5,0.968
1329.797,408.0,0.968
1330.39,408.5,0.968
1330.983,409.0,0.968
1331.579,409.5,0.968
1332.175,410.0,0.968
1332.768,410.5,0.968
1333.36,411.0,0.968
1333.949,411.5,0.968
1334.543,412.0,0.968
1335.138,412.5,0.968
1335.737,413.0,0.968
1336.334,413.5,0.968
1336.928,414.0,0.968
1337.518,414.5,0.968
1338.11,415.0,0.968
1338.706,415.5,0.968
1339.298,416.0,0.968
1339.884,416.5,0.968
1340.478,417.0,0.968
1341.073,417.5,0.968
1341.657,418.0,0.968
1342.249,418.5,0.968
1342.852,419.0,0.968
1343.444,419.5,0.968
1344.033,420.0,0.968
1344.626,420.5,0.968
1345.218,421.0,0.968
1345.809,421.5,0.968
1346.401,422.0,0.968
1346.993,422.5,0.968
1347.586,423.0,0.968
1348.178,423.5,0.968
1348.77,424.0,0.968
1349.362,424.5,0.968
1349.956,425.0,0.968
1350.538,425.5,0.968
1351.123,426.0,0.968
1351.727,426.5,0.968
1352.32,427.0,0.968
1352.904,427.5,0.968
1353.496,428.0,0.968
1354.089,428.5,0.968
1354.682,429.0,0.968
1355.274,429.5,0.968
1355.865,430.0,0.968
1356.45,430.5,0.968
1357.033,431.0,0.968
1357.629,431.5,0.968
1358.222,432.0,0.968
1358.811,432.5,0.968
1359.402,433.0,0.968
1359.994,433.5,0.967
1360.584,434.0,0.967
1361.172,434.5,0.967
1361.755,435.0,0.967
1362.344,435.5,0.967
1362.936,436.0,0.967
1363.52,436.5,0.967
1364.105,437.0,0.967
1364.696,437.5,0.967
1365.288,438.0,0.967
1365.881,438.5,0.967
1366.473,439.0,0.967
1367.064,439.5,0.967
1367.648,440.0,0.967
1368.233,440.5,0.967
1368.822,441.0,0.967
1369.414,441.5,0.967
1370.008,442.0,0.967
1370.592,442.5,0.967
1371.178,443.0,0.967
1371.77,443.5,0.967
1372.352,444.0,0.967
1372.928,444.5,0.967
1373.52,445.0,0.967
1374.112,445.5,0.967
1374.698,446.0,0.966
1375.287,446.5,0.966
1375.876,447.0,0.966
1376.46,447.5,0.966
1377.041,448.0,0.966
1377.617,448.5,0.966
1378.202,449.0,0.966
1378.807,449.5,0.966
1379.395,450.0,0.966
1379.977,450.5,0.966
1380.57,451.0,0.966
1381.16,451.5,0.966
1381.742,452.0,0.966
1382.327,452.5,0.966
1382.916,453.0,0.966
1383.501,453.5,0.966
1384.085,454.0,0.966
1384.664,454.5,0.965
1385.246,455.0,0.965
1385.831,455.5,0.965
1386.415,456.0,0.965
1386.998,456.5,0.965
1387.587,457.0,0.965
1388.174,457.5,0.965
1388.759,458.0,0.965
1389.343,458.5,0.965
1389.925,459.0,0.965
1390.515,459.5,0.965
1391.104,460.0,0.965
1391.682,460.5,0.964
1392.263,461.0,0.964
1392.848,461.5,0.964
1393.436,462.0,0.964
1394.024,462.5,0.964
1394.607,463.0,0.964
1395.19,463.5,0.964
1395.776,464.0,0.964
1396.36,464.5,0.964
1396.943,465.0,0.964
1397.525,465.5,0.963
1398.108,466.0,0.963
1398.696,466.5,0.963
1399.28,467.0,0.963
1399.858,467.5,0.963
1400.438,468.0,0.963
1401.019,468.5,0.963
1401.611,469.0,0.962
1402.199,469.5,0.962
1402.779,470.0,0.962
1403.359,470.5,0.962
1403.941,471.0,0.962
1404.526,471.5,0.962
1405.111,472.0,0.962
1405.695,472.5,0.961
1406.277,473.0,0.961
1406.856,473.5,0.961
1407.439,474.0,0.961
1408.023,474.5,0.961
1408.6,475.0,0.961
1409.179,475.5,0.961
1409.766,476.0,0.96
1410.35,476.5,0.96
1410.932,477.0,0.96
1411.523,477.5,0.96
1412.111,478.0,0.96
1412.684,478.5,0.959
1413.262,479.0,0.959
1413.847,479.5,0.959
1414.427,480.0,0.959
1415.006,480.5,0.959
1415.592,481.0,0.958
1416.177,481.5,0.958
1416.757,482.0,0.958
1417.335,482.5,0.958
1417.91,483.0,0.958
1418.495,483.5,0.958
1419.081,484.0,0.957
1419.657,484.5,0.957
1420.236,485.0,0.957
1420.82,485.5,0.957
1421.403,486.0,0.957
1421.985,486.5,0.956
1422.561,487.0,0.956
1423.14,487.5,0.956
1423.727,488.0,0.956
1424.313,488.5,0.956
1424.896,489.0,0.955
1425.474,489.5,0.955
1426.05,490.0,0.955
1426.631,490.5,0.955
1427.212,491.0,0.955
1427.791,491.5,0.954
1428.37,492.0,0.954
1428.949,492.5,0.954
1429.528,493.0,0.954
1430.108,493.5,0.954
1430.692,494.0,0.953
1431.278,494.5,0.953
1431.863,495.0,0.953
1432.439,495.5,0.953
1433.013,496.0,0.952
1433.598,496.5,0.952
1434.18,497.0,0.952
1434.758,497.5,0.952
1435.339,498.0,0.952
1435.923,498.5,0.951
1436.5,499.0,0.951
1437.077,499.5,0.951
1437.661,500.0,0.95
1438.242,500.5,0.95
1438.817,501.0,0.95
1439.396,501.5,0.95
1439.976,502.0,0.95
1440.559,502.5,0.949
1441.143,503.0,0.949
1441.727,503.5,0.949
1442.309,504.0,0.949
1442.887,504.5,0.948
1443.467,505.0,0.948
1444.048,505.5,0.948
1444.632,506.0,0.948
1445.215,506.5,0.948
1445.795,507.0,0.947
1446.376,507.5,0.947
1446.957,508.0,0.947
1447.542,508.5,0.946
1448.127,509.0,0.946
1448.708,509.5,0.946
1449.287,510.0,0.946
1449.864,510.5,0.945
1450.44,511.0,0.945
1451.015,511.5,0.945
1451.6,512.0,0.944
1452.181,512.5,0.944
1452.754,513.0,0.944
1453.335,513.5,0.944
1453.921,514.0,0.943
1454.503,514.5,0.943
1455.085,515.0,0.943
1455.667,515.5,0.942
1456.247,516.0,0.942
1456.825,516.5,0.942
1457.408,517.0,0.942
1457.993,517.5,0.941
1458.572,518.0,0.941
1459.15,518.5,0.941
1459.727,519.0,0.94
1460.308,519.5,0.94
1460.894,520.0,0.94
1461.474,520.5,0.94
1462.053,521.0,0.939
1462.636,521.5,0.938
1463.219,522.0,0.938
1463.8,522.5,0.938
1464.38,523.0,0.938
1464.959,523.5,0.937
1465.544,524.0,0.936
1466.129,524.5,0.936
1466.71,525.0,0.936
1467.286,525.5,0.936
1467.856,526.0,0.935
1468.434,526.5,0.935
1469.015,527.0,0.934
1469.597,527.5,0.934
1470.181,528.0,0.934
1470.767,528.5,0.933
1471.348,529.0,0.933
1471.925,529.5,0.932
1472.508,530.0,0.931
1473.089,530.5,0.931
1473.663,531.0,0.931
1474.242,531.5,0.931
1474.829,532.0,0.93
1475.41,532.5,0.93
1475.99,533.0,0.929
1476.573,533.5,0.928
1477.157,534.0,0.928
1477.742,534.5,0.927
1478.317,535.0,0.927
1478.884,535.5,0.927
1479.475,536.0,0.927
1480.069,536.5,0.926
1480.648,537.0,0.925
1481.226,537.5,0.925
1481.802,538.0,0.924
1482.384,538.5,0.924
1482.97,539.0,0.923
1483.552,539.5,0.922
1484.133,540.0,0.922
1484.713,540.5,0.921
1485.294,541.0,0.921
1485.876,541.5,0.92
1486.455,542.0,0.92
1487.034,542.5,0.919
1487.62,543.0,0.918
1488.205,543.5,0.918
1488.788,544.0,0.917
1489.368,544.5,0.917
1489.947,545.0,0.916
1490.531,545.5,0.915
1491.116,546.0,0.915
1491.701,546.5,0.914
1492.286,547.0,0.914
1492.869,547.5,0.913
1493.449,548.0,0.913
1494.026,548.5,0.912
1494.603,549.0,0.911
1495.181,549.5,0.91
1495.763,550.0,0.909
1496.348,550.5,0.909
1496.933,551.0,0.908
1497.518,551.5,0.907
1498.101,552.0,0.907
1498.683,552.5,0.906
1499.264,553.0,0.905
1499.844,553.5,0.904
1500.426,554.0,0.904
1501.009,554.5,0.903
1501.597,555.0,0.902
1502.183,555.5,0.902
1502.766,556.0,0.9
1503.346,556.5,0.9
1503.926,557.0,0.899
1504.506,557.5,0.898
1505.087,558.0,0.898
1505.671,558.5,0.897
1506.257,559.0,0.896
1506.843,559.5,0.895
1507.426,560.0,0.895
1508.007,560.5,0.894
1508.589,561.0,0.893
1509.174,561.5,0.892
1509.765,562.0,0.891
1510.351,562.5,0.89
1510.935,563.0,0.889
1511.509,563.5,0.888
1512.084,564.0,0.888
1512.671,564.5,0.887
1513.254,565.0,0.886
1513.835,565.5,0.885
1514.422,566.0,0.885
1515.012,566.5,0.884
1515.596,567.0,0.883
1516.18,567.5,0.882
1516.766,568.0,0.881
1517.346,568.5,0.88
1517.923,569.0,0.879
1518.511,569.5,0.878
1519.099,570.0,0.878
1519.682,570.5,0.877
1520.266,571.0,0.875
1520.853,571.5,0.874
1521.438,572.0,0.874
1522.022,572.5,0.873
1522.608,573.0,0.872
1523.195,573.5,0.871
1523.783,574.0,0.87
1524.367,574.5,0.869
1524.95,575.0,0.868
1525.533,575.5,0.867
1526.116,576.0,0.866
1526.701,576.5,0.865
1527.287,577.0,0.864
1527.871,577.5,0.863
1528.456,578.0,0.862
1529.041,578.5,0.861
1529.627,579.0,0.86
1530.212,579.5,0.86
1530.796,580.0,0.858
1531.38,580.5,0.857
1531.965,581.0,0.856
1532.551,581.5,0.855
1533.137,582.0,0.855
1533.725,582.5,0.854
1534.313,583.0,0.852
1534.901,583.5,0.851
1535.486,584.0,0.85
1536.07,584.5,0.849
1536.657,585.0,0.848
1537.244,585.5,0.847
1537.832,586.0,0.845
1538.413,586.5,0.844
1538.991,587.0,0.843
1539.58,587.5,0.842
1540.167,588.0,0.842
1540.749,588.5,0.841
1541.335,589.0,0.839
1541.921,589.5,0.838
1542.512,590.0,0.837
1543.103,590.5,0.836
1543.689,591.0,0.835
1544.276,591.5,0.833
1544.863,592.0,0.832
1545.448,592.5,0.831
1546.033,593.0,0.829
1546.618,593.5,0.828
1547.207,594.0,0.827
1547.801,594.5,0.825
1548.388,595.0,0.824
1548.971,595.5,0.823
1549.554,596.0,0.822
1550.141,596.5,0.821
1550.737,597.0,0.819
1551.326,597.5,0.817
1551.907,598.0,0.816
1552.496,598.5,0.815
1553.086,599.0,0.814
1553.673,599.5,0.812
1554.262,600.0,0.81
1554.854,600.5,0.809
1555.44,601.0,0.808
1556.025,601.5,0.807
1556.617,602.0,0.805
1557.208,602.5,0.803
1557.797,603.0,0.802
1558.39,603.5,0.8
1558.983,604.0,0.799
1559.566,604.5,0.797
1560.15,605.0,0.796
1560.741,605.5,0.795
1561.328,606.0,0.793
1561.912,606.5,0.791
1562.51,607.0,0.789
1563.106,607.5,0.788
1563.691,608.0,0.786
1564.279,608.5,0.784
1564.871,609.0,0.782
1565.463,609.5,0.781
1566.055,610.0,0.78
1566.644,610.5,0.778
1567.231,611.0,0.776
1567.819,611.5,0.775
1568.41,612.0,0.773
1569.004,612.5,0.771
1569.594,613.0,0.769
1570.182,613.5,0.767
1570.767,614.0,0.765
1571.36,614.5,0.763
1571.957,615.0,0.761
1572.543,615.5,0.759
1573.13,616.0,0.758
1573.722,616.5,0.756
1574.314,617.0,0.754
1574.906,617.5,0.751
1575.495,618.0,0.75
1576.085,618.5,0.748
1576.681,619.0,0.746
1577.274,619.5,0.744
1577.864,620.0,0.742
1578.457,620.5,0.74
1579.051,621.0,0.738
1579.645,621.5,0.735
1580.236,622.0,0.733
1580.824,622.5,0.731
1581.415,623.0,0.729
1582.007,623.5,0.727
1582.602,624.0,0.725
1583.194,624.5,0.722
1583.783,625.0,0.72
1584.378,625.5,0.717
1584.977,626.0,0.715
1585.567,626.5,0.713
1586.157,627.0,0.711
1586.75,627.5,0.709
1587.341,628.0,0.707
1587.93,628.5,0.704
1588.528,629.0,0.702
1589.125,629.5,0.699
1589.717,630.0,0.697
1590.31,630.5,0.695
1590.903,631.0,0.692
1591.504,631.5,0.689
1592.104,632.0,0.687
1592.695,632.5,0.684
1593.29,633.0,0.682
1593.89,633.5,0.679
1594.487,634.0,0.677
1595.083,634.5,0.675
1595.664,635.0,0.672
1596.252,635.5,0.67
1596.85,636.0,0.667
1597.447,636.5,0.664
1598.044,637.0,0.662
1598.635,637.5,0.659
1599.231,638.0,0.657
1599.836,638.5,0.654
1600.429,639.0,0.651
1601.018,639.5,0.649
1601.613,640.0,0.646
1602.21,640.5,0.643
1602.811,641.0,0.641
1603.41,641.5,0.638
1604.007,642.0,0.635
1604.597,642.5,0.633
1605.19,643.0,0.63
1605.79,643.5,0.627
1606.386,644.0,0.624
1606.981,644.5,0.621
1607.574,645.0,0.619
1608.169,645.5,0.616
1608.768,646.0,0.613
1609.368,646.5,0.61
1609.969,647.0,0.607
1610.563,647.5,0.604
1611.158,648.0,0.601
1611.755,648.5,0.599
1612.353,649.0,0.596
1612.952,649.5,0.593
1613.545,650.0,0.59
1614.137,650.5,0.587
1614.728,651.0,0.584
1615.325,651.5,0.581
1615.925,652.0,0.578
1616.523,652.5,0.575
1617.121,653.0,0.572
1617.717,653.5,0.569
1618.318,654.0,0.566
1618.921,654.5,0.563
1619.518,655.0,0.56
1620.114,655.5,0.556
1620.71,656.0,0.553
1621.309,656.5,0.55
1621.912,657.0,0.547
1622.511,657.5,0.544
1623.109,658.0,0.54
1623.708,658.5,0.537
1624.308,659.0,0.534
1624.909,659.5,0.531
1625.51,660.0,0.527
1626.109,660.5,0.524
1626.704,661.0,0.521
1627.306,661.5,0.517
1627.916,662.0,0.514
1628.512,662.5,0.511
1629.109,663.0,0.507
1629.713,663.5,0.504
1630.318,664.0,0.5
1630.924,664.5,0.496
1631.521,665.0,0.493
1632.118,665.5,0.489
1632.722,666.0,0.486
1633.326,666.5,0.482
1633.93,667.0,0.478
1634.534,667.5,0.475
1635.138,668.0,0.471
1635.737,668.5,0.467
1636.335,669.0,0.463
1636.93,669.5,0.459
1637.528,670.0,0.456
1638.127,670.5,0.452
1638.725,671.0,0.448
1639.328,671.5,0.444
1639.936,672.0,0.44
1640.536,672.5,0.436
1641.136,673.0,0.432
1641.737,673.5,0.428
1642.341,674.0,0.424
1642.947,674.5,0.42
1643.555,675.0,0.416
1644.161,675.5,0.412
1644.758,676.0,0.408
1645.361,676.5,0.403
1645.968,677.0,0.399
1646.564,677.5,0.395
1647.16,678.0,0.391
1647.764,678.5,0.387
1648.367,679.0,0.382
1648.971,679.5,0.378
1649.573,680.0,0.374
1650.174,680.5,0.37
1650.772,681.0,0.366
1651.377,681.5,0.361
1651.985,682.0,0.357
1652.582,682.5,0.353
1653.18,683.0,0.349
1653.782,683.5,0.345
1654.388,684.0,0.34
1654.995,684.5,0.336
1655.592,685.0,0.332
1656.191,685.5,0.329
1656.794,686.0,0.324
1657.395,686.5,0.321
1657.995,687.0,0.317
1658.598,687.5,0.313
1659.197,688.0,0.309
1659.792,688.5,0.305
1660.398,689.0,0.302
1661.011,689.5,0.299
1661.614,690.0,0.295
1662.216,690.5,0.292
1662.816,691.0,0.289
1663.414,691.5,0.286
1664.011,692.0,0.283
1664.616,692.5,0.28
1665.221,693.0,0.277
1665.824,693.5,0.274
1666.422,694.0,0.271
1667.018,694.5,0.269
1667.627,695.0,0.267
1668.232,695.5,0.265
1668.831,696.0,0.263
1669.43,696.5,0.261
1670.03,697.0,0.259
1670.628,697.5,0.256
1671.229,698.0,0.255
1671.833,698.5,0.253
1672.44,699.0,0.252
1673.047,699.5,0.25
1673.653,700.0,0.249
1674.254,700.5,0.247
1674.852,701.0,0.246
1675.448,701.5,0.246
1676.045,702.0,0.245
1676.649,702.5,0.244
1677.256,703.0,0.242
1677.866,703.5,0.241
1678.467,704.0,0.241
1679.066,704.5,0.24
1679.676,705.0,0.239
1680.28,705.5,0.239
1680.878,706.0,0.238
1681.482,706.5,0.238
1682.087,707.0,0.237
1682.69,707.5,0.236
1683.294,708.0,0.236
1683.898,708.5,0.235
1684.498,709.0,0.235
1685.098,709.5,0.235
1685.703,710.0,0.234
1686.309,710.5,0.234
1686.914,711.0,0.233
1687.517,711.5,0.233
1688.122,712.0,0.233
1688.73,712.5,0.232
1689.335,713.0,0.232
1689.936,713.5,0.232
1690.54,714.0,0.231
1691.144,714.5,0.231
1691.747,715.0,0.231
1692.349,715.5,0.231
1692.952,716.0,0.23
1693.554,716.5,0.23
1694.158,717.0,0.23
1694.767,717.5,0.229
1695.376,718.0,0.229
1695.985,718.5,0.228
1696.587,719.0,0.228
1697.189,719.5,0.228
1697.79,720.0,0.227
1698.394,720.5,0.227
1699.001,721.0,0.227
1699.615,721.5,0.226
1700.223,722.0,0.226
1700.824,722.5,0.226
1701.426,723.0,0.226
1702.03,723.5,0.226
1702.635,724.0,0.225
1703.241,724.5,0.225
1703.851,725.0,0.225
1704.455,725.5,0.225
1705.057,726.0,0.224
1705.665,726.5,0.224
1706.272,727.0,0.224
1706.878,727.5,0.223
1707.484,728.0,0.223
1708.091,728.5,0.223
1708.698,729.0,0.222
1709.303,729.5,0.222
1709.907,730.0,0.222
1710.511,730.5,0.221
1711.115,731.0,0.221
1711.712,731.5,0.221
1712.318,732.0,0.221
1712.932,732.5,0.22
1713.536,733.0,0.22
1714.14,733.5,0.22
1714.748,734.0,0.219
1715.354,734.5,0.219
1715.959,735.0,0.219
1716.564,735.5,0.219
1717.17,736.0,0.219
1717.776,736.5,0.218
1718.384,737.0,0.218
1718.993,737.5,0.218
1719.602,738.0,0.217
1720.211,738.5,0.217
1720.816,739.0,0.217
1721.42,739.5,0.217
1722.023,740.0,0.217
1722.633,740.5,0.216
1723.241,741.0,0.216
1723.845,741.5,0.216
1724.453,742.0,0.216
1725.062,742.5,0.215
1725.67,743.0,0.215
1726.276,743.5,0.215
1726.88,744.0,0.214
1727.484,744.5,0.214
1728.088,745.0,0.214
1728.693,745.5,0.214
1729.302,746.0,0.214
1729.915,746.5,0.213
1730.525,747.0,0.213
1731.133,747.5,0.213
1731.736,748.0,0.213
1732.34,748.5,0.213
1732.946,749.0,0.212
1733.558,749.5,0.212
1734.166,750.0,0.212
1734.765,750.5,0.211
1735.369,751.0,0.211
1735.976,751.5,0.211
1736.587,752.0,0.211
1737.198,752.5,0.211
1737.808,753.0,0.21
1738.415,753.5,0.21
1739.019,754.0,0.21
1739.625,754.5,0.21
1740.232,755.0,0.21
1740.841,755.5,0.209
1741.446,756.0,0.209
1742.051,756.5,0.209
1742.661,757.0,0.209
1743.268,757.5,0.209
1743.873,758.0,0.208
1744.481,758.5,0.208
1745.09,759.0,0.208
1745.7,759.5,0.207
1746.309,760.0,0.207
1746.917,760.5,0.207
1747.522,761.0,0.207
1748.126,761.5,0.207
1748.733,762.0,0.207
1749.34,762.5,0.207
1749.948,763.0,0.206
1750.555,763.5,0.206
1751.16,764.0,0.206
1751.764,764.5,0.206
1752.374,765.0,0.206
1752.99,765.5,0.205
1753.596,766.0,0.205
1754.201,766.5,0.205
1754.806,767.0,0.205
1755.414,767.5,0.205
1756.023,768.0,0.204
1756.637,768.5,0.204
1757.245,769.0,0.204
1757.847,769.5,0.204
1758.453,770.0,0.204
1759.061,770.5,0.203
1759.674,771.0,0.203
1760.284,771.5,0.203
1760.892,772.0,0.203
1761.499,772.5,0.203
1762.106,773.0,0.203
1762.713,773.5,0.202
1763.322,774.0,0.202
1763.931,774.5,0.202
1764.54,775.0,0.202
1765.147,775.5,0.202
1765.75,776.0,0.202
1766.356,776.5,0.202
1766.965,777.0,0.201
1767.574,777.5,0.201
1768.183,778.0,0.201
1768.794,778.5,0.201
1769.398,779.0,0.201
1770.0,779.5,0.201
1770.61,780.0,0.2
1771.22,780.5,0.2
1771.832,781.0,0.2
1772.439,781.5,0.2
1773.045,782.0,0.2
1773.651,782.5,0.2
1774.26,783.0,0.2
1774.873,783.5,0.199
1775.483,784.0,0.199
1776.091,784.5,0.199
1776.692,785.0,0.199
1777.296,785.5,0.199
1777.902,786.0,0.199
1778.518,786.5,0.199
1779.133,787.0,0.199
1779.738,787.5,0.198
1780.343,788.0,0.198
1780.947,788.5,0.198
1781.564,789.0,0.198
1782.177,789.5,0.198
1782.779,790.0,0.198
1783.382,790.5,0.198
1783.987,791.0,0.198
1784.598,791.5,0.197
1785.209,792.0,0.197
1785.819,792.5,0.197
1786.427,793.0,0.197
1787.034,793.5,0.197
1787.639,794.0,0.197
1788.244,794.5,0.197
1788.847,795.0,0.197
1789.457,795.5,0.197
1790.069,796.0,0.196
1790.677,796.5,0.196
1791.282,797.0,0.196
1791.884,797.5,0.196
1792.494,798.0,0.196
1793.104,798.5,0.196
1793.71,799.0,0.196
1794.319,799.5,0.196
1794.929,800.0,0.195
1795.539,800.5,0.195
1796.148,801.0,0.195
1796.755,801.5,0.195
1797.359,802.0,0.195
1797.96,802.5,0.195
1798.572,803.0,0.195
1799.18,803.5,0.195
1799.779,804.0,0.195
1800.389,804.5,0.195
1801.005,805.0,0.194
1801.609,805.5,0.194
1802.216,806.0,0.194
1802.827,806.5,0.194
1803.436,807.0,0.194
1804.045,807.5,0.194
1804.656,808.0,0.194
1805.265,808.5,0.194
1805.869,809.0,0.194
1806.473,809.5,0.194
1807.078,810.0,0.193
1807.686,810.5,0.193
1808.293,811.0,0.193
1808.899,811.5,0.193
1809.506,812.0,0.193
1810.113,812.5,0.193
1810.723,813.0,0.193
1811.332,813.5,0.193
1811.94,814.0,0.192
1812.547,814.5,0.192
1813.154,815.0,0.192
1813.764,815.5,0.192
1814.371,816.0,0.192
1814.975,816.5,0.192
1815.578,817.0,0.192
1816.184,817.5,0.192
1816.799,818.0,0.192
1817.405,818.5,0.192
1818.007,819.0,0.192
1818.614,819.5,0.191
1819.222,820.0,0.191
1819.833,820.5,0.191
1820.442,821.0,0.191
1821.051,821.5,0.191
1821.653,822.0,0.191
1822.259,822.5,0.191
1822.87,823.0,0.191
1823.478,823.5,0.191
1824.084,824.0,0.191
1824.692,824.5,0.19
1825.302,825.0,0.19
1825.913,825.5,0.19
1826.517,826.0,0.19
1827.121,826.5,0.19
1827.725,827.0,0.19
1828.334,827.5,0.19
1828.948,828.0,0.19
1829.561,828.5,0.19
1830.17,829.0,0.19
1830.767,829.5,0.19
1831.372,830.0,0.19
1831.983,830.5,0.189
1832.588,831.0,0.189
1833.193,831.5,0.189
1833.8,832.0,0.189
1834.409,832.5,0.189
1835.018,833.0,0.189
1835.628,833.5,0.189
1836.237,834.0,0.189
1836.845,834.5,0.189
1837.449,835.0,0.189
1838.053,835.5,0.189
1838.668,836.0,0.189
1839.277,836.5,0.189
1839.878,837.0,0.188
1840.49,837.5,0.188
1841.101,838.0,0.188
1841.704,838.5,0.188
1842.308,839.0,0.188
1842.913,839.5,0.188
1843.521,840.0,0.188
1844.129,840.5,0.188
1844.739,841.0,0.188
1845.346,841.5,0.188
1845.952,842.0,0.188
1846.563,842.5,0.188
1847.174,843.0,0.188
1847.781,843.5,0.187
1848.386,844.0,0.187
1848.99,844.5,0.187
1849.602,845.0,0.187
1850.213,845.5,0.187
1850.82,846.0,0.187
1851.425,846.5,0.187
1852.028,847.0,0.187
1852.632,847.5,0.187
1853.241,848.0,0.187
1853.859,848.5,0.187
1854.464,849.0,0.187
1855.066,849.5,0.186
1855.673,850.0,0.186
1856.282,850.5,0.186
1856.894,851.0,0.186
1857.501,851.5,0.186
1858.107,852.0,0.186
1858.718,852.5,0.186
1859.326,853.0,0.186
1859.933,853.5,0.186
1860.537,854.0,0.186
1861.144,854.5,0.186
1861.759,855.0,0.185
1862.369,855.5,0.185
1862.976,856.0,0.185
1863.58,856.5,0.185
1864.188,857.0,0.185
1864.8,857.5,0.185
1865.407,858.0,0.185
1866.011,858.5,0.185
1866.625,859.0,0.185
1867.234,859.5,0.185
1867.838,860.0,0.185
1868.441,860.5,0.185
1869.044,861.0,0.184
1869.653,861.5,0.184
1870.262,862.0,0.184
1870.872,862.5,0.184
1871.482,863.0,0.184
1872.093,863.5,0.184
1872.702,864.0,0.184
1873.306,864.5,0.184
1873.907,865.0,0.184
1874.514,865.5,0.184
1875.121,866.0,0.184
1875.726,866.5,0.184
1876.329,867.0,0.184
1876.932,867.5,0.183
1877.547,868.0,0.183
1878.159,868.5,0.183
1878.76,869.0,0.183
1879.366,869.5,0.183
1879.976,870.0,0.183
1880.588,870.5,0.183
1881.198,871.0,0.183
1881.8,871.5,0.183
1882.405,872.0,0.183
1883.011,872.5,0.183
1883.611,873.0,0.183
1884.215,873.5,0.183
1884.827,874.0,0.182
1885.442,874.5,0.182
1886.057,875.0,0.182
1886.662,875.5,0.182
1887.268,876.0,0.182
1887.873,876.5,0.182
1888.478,877.0,0.182
1889.084,877.5,0.182
1889.69,878.0,0.182
1890.296,878.5,0.182
1890.904,879.0,0.182
1891.51,879.5,0.182
1892.115,880.0,0.182
1892.72,880.5,0.182
1893.328,881.0,0.182
1893.939,881.5,0.181
1894.543,882.0,0.181
1895.148,882.5,0.181
1895.758,883.0,0.181
1896.363,883.5,0.181
1896.963,884.0,0.181
1897.571,884.5,0.181
1898.179,885.0,0.181
1898.782,885.5,0.181
1899.387,886.0,0.181
1899.994,886.5,0.181
1900.608,887.0,0.181
1901.217,887.5,0.181
1901.817,888.0,0.181
1902.421,888.5,0.181
1903.027,889.0,0.18
1903.636,889.5,0.18
1904.242,890.0,0.18
1904.844,890.5,0.18
1905.453,891.0,0.18
1906.065,891.5,0.18
1906.666,892.0,0.18
1907.267,892.5,0.18
1907.869,893.0,0.18
1908.48,893.5,0.18
1909.093,894.0,0.18
1909.697,894.5,0.18
1910.303,895.0,0.18
1910.91,895.5,0.18
1911.518,896.0,0.18
1912.125,896.5,0.18
1912.73,897.0,0.179
1913.339,897.5,0.179
1913.95,898.0,0.179
1914.55,898.5,0.179
1915.15,899.0,0.179
1915.756,899.5,0.179
1916.365,900.0,0.179
1916.976,900.5,0.179
1917.573,901.0,0.179
1918.173,901.5,0.179
1918.778,902.0,0.179
1919.384,902.5,0.179
1919.99,903.0,0.179
1920.597,903.5,0.179
1921.206,904.0,0.179
1921.818,904.5,0.179
1922.422,905.0,0.179
1923.024,905.5,0.178
1923.628,906.0,0.178
1924.235,906.5,0.178
1924.846,907.0,0.178
1925.456,907.5,0.178
1926.065,908.0,0.178
1926.667,908.5,0.178
1927.268,909.0,0.178
1927.868,909.5,0.178
1928.47,910.0,0.178
1929.074,910.5,0.178
1929.684,911.0,0.178
1930.291,911.5,0.178
1930.896,912.0,0.178
1931.5,912.5,0.178
1932.104,913.0,0.178
1932.708,913.5,0.178
1933.315,914.0,0.178
1933.926,914.5,0.177
1934.529,915.0,0.177
1935.133,915.5,0.177
1935.742,916.0,0.177
1936.346,916.5,0.177
1936.946,917.0,0.177
1937.55,917.5,0.177
1938.156,918.0,0.177
1938.764,918.5,0.177
1939.37,919.0,0.177
1939.973,919.5,0.177
1940.576,920.0,0.177
1941.18,920.5,0.177
1941.786,921.0,0.177
1942.39,921.5,0.177
1942.992,922.0,0.177
1943.598,922.5,0.176
1944.204,923.0,0.176
1944.811,923.5,0.176
1945.415,924.0,0.176
1946.019,924.5,0.176
1946.624,925.0,0.176
1947.229,925.5,0.176
1947.833,926.0,0.176
1948.439,926.5,0.176
1949.045,927.0,0.176
1949.649,927.5,0.176
1950.25,928.0,0.176
1950.849,928.5,0.176
1951.457,929.0,0.176
1952.067,929.5,0.176
1952.665,930.0,0.176
1953.268,930.5,0.176
1953.877,931.0,0.176
1954.48,931.5,0.176
1955.082,932.0,0.176
1955.681,932.5,0.175
1956.286,933.0,0.175
1956.897,933.5,0.175
1957.502,934.0,0.175
1958.107,934.5,0.175
1958.715,935.0,0.175
1959.319,935.5,0.175
1959.918,936.0,0.175
1960.525,936.5,0.175
1961.131,937.0,0.175
1961.733,937.5,0.175
1962.335,938.0,0.175
1962.938,938.5,0.175
1963.546,939.0,0.175
1964.154,939.5,0.175
1964.763,940.0,0.175
1965.369,940.5,0.175
1965.971,941.0,0.175
1966.578,941.5,0.175
1967.183,942.0,0.175
1967.784,942.5,0.174
1968.384,943.0,0.174
1968.984,943.5,0.174
1969.592,944.0,0.174
1970.197,944.5,0.174
1970.799,945.0,0.174
1971.406,945.5,0.174
1972.014,946.0,0.174
1972.612,946.5,0.174
1973.215,947.0,0.174
1973.827,947.5,0.174
1974.431,948.0,0.174
1975.032,948.5,0.174
1975.641,949.0,0.174
1976.243,949.5,0.174
1976.837,950.0,0.174
1977.442,950.5,0.174
1978.05,951.0,0.174
1978.656,951.5,0.174
1979.262,952.0,0.174
1979.869,952.5,0.173
1980.469,953.0,0.173
1981.069,953.5,0.173
1981.674,954.0,0.173
1982.279,954.5,0.173
1982.884,955.0,0.173
1983.485,955.5,0.173
1984.085,956.0,0.173
1984.685,956.5,0.173
1985.291,957.0,0.173
1985.901,957.5,0.173
1986.507,958.0,0.173
1987.112,958.5,0.173
1987.712,959.0,0.173
1988.315,959.5,0.173
1988.92,960.0,0.173
1989.525,960.5,0.173
1990.127,961.0,0.173
1990.723,961.5,0.173
1991.325,962.0,0.173
1991.934,962.5,0.173
1992.542,963.0,0.173
1993.149,963.5,0.173
1993.752,964.0,0.173
1994.355,964.5,0.173
1994.958,965.0,0.173
1995.57,965.5,0.172
1996.176,966.0,0.172
1996.768,966.5,0.172
1997.37,967.0,0.172
1997.979,967.5,0.172
1998.583,968.0,0.172
1999.188,968.5,0.172
1999.795,969.0,0.172
2000.395,969.5,0.172
2000.992,970.0,0.172
2001.601,970.5,0.172
2002.21,971.0,0.172
2002.817,971.5,0.172
2003.42,972.0,0.172
2004.022,972.5,0.172
2004.626,973.0,0.172
2005.229,973.5,0.172
2005.83,974.0,0.172
2006.433,974.5,0.172
2007.037,975.0,0.172
2007.646,975.5,0.172
2008.249,976.0,0.172
2008.844,976.5,0.172
2009.45,977.0,0.172
2010.059,977.5,0.172
2010.66,978.0,0.171
2011.264,978.5,0.171
2011.871,979.0,0.171
2012.476,979.5,0.171
2013.081,980.0,0.171
2013.685,980.5,0.171
2014.289,981.0,0.171
2014.893,981.5,0.171
2015.5,982.0,0.171
2016.108,982.5,0.171
2016.712,983.0,0.171
2017.313,983.5,0.171
2017.91,984.0,0.171
2018.516,984.5,0.171
2019.122,985.0,0.171
2019.726,985.5,0.171
2020.327,986.0,0.171
2020.926,986.5,0.171
2021.535,987.0,0.171
2022.144,987.5,0.171
2022.748,988.0,0.171
2023.351,988.5,0.171
2023.953,989.0,0.171
2024.559,989.5,0.171
2025.164,990.0,0.171
2025.766,990.5,0.171
2026.367,991.0,0.171
2026.968,991.5,0.17
2027.578,992.0,0.17
2028.185,992.5,0.17
2028.786,993.0,0.17
2029.386,993.5,0.17
2029.986,994.0,0.17
2030.592,994.5,0.17
2031.2,995.0,0.17
2031.809,995.5,0.17
2032.411,996.0,0.17
2033.01,996.5,0.17
2033.616,997.0,0.17
2034.221,997.5,0.17
2034.824,998.0,0.17
2035.431,998.5,0.17
2036.038,999.0,0.17
2036.639,999.5,0.17
2037.241,1000.0,0.17
2037.846,1000.5,0.17
2038.448,1001.0,0.17
2039.049,1001.5,0.17
2039.655,1002.0,0.17
2040.257,1002.5,0.17
2040.853,1003.0,0.17
2041.461,1003.5,0.17
2042.071,1004.0,0.17
2042.672,1004.5,0.17
2043.274,1005.0,0.17
2043.878,1005.5,0.17
2044.477,1006.0,0.17
2045.075,1006.5,0.17
2045.68,1007.0,0.17
2046.286,1007.5,0.17
2046.891,1008.0,0.169
2047.496,1008.5,0.169
2048.101,1009.0,0.169
2048.7,1009.5,0.169
2049.302,1010.0,0.169
2049.905,1010.5,0.169
2050.507,1011.0,0.169
2051.111,1011.5,0.169
2051.718,1012.0,0.169
2052.32,1012.5,0.169
2052.918,1013.0,0.169
2053.519,1013.5,0.169
2054.121,1014.0,0.169
2054.725,1014.5,0.169
2055.329,1015.0,0.169
2055.935,1015.5,0.169
2056.539,1016.0,0.169
2057.142,1016.5,0.169
2057.739,1017.0,0.169
2058.341,1017.5,0.169
2058.948,1018.0,0.169
2059.547,1018.5,0.169
2060.147,1019.0,0.169
2060.751,1019.5,0.169
2061.354,1020.0,0.169
2061.957,1020.5,0.169
2062.566,1021.0,0.169
2063.172,1021.5,0.169
2063.77,1022.0,0.169
2064.371,1022.5,0.169
2064.972,1023.0,0.169
2065.574,1023.5,0.169
2066.176,1024.0,0.169
2066.78,1024.5,0.169
2067.383,1025.0,0.169
2067.984,1025.5,0.169
2068.59,1026.0,0.169
2069.193,1026.5,0.169
2069.794,1027.0,0.168
2070.397,1027.5,0.168
2071.002,1028.0,0.168
2071.602,1028.5,0.168
2072.202,1029.0,0.168
2072.804,1029.5,0.168
2073.41,1030.0,0.168
2074.019,1030.5,0.168
2074.612,1031.0,0.168
2075.208,1031.5,0.168
2075.81,1032.0,0.168
2076.415,1032.5,0.168
2077.022,1033.0,0.168
2077.624,1033.5,0.168
2078.226,1034.0,0.168
2078.826,1034.5,0.168
2079.427,1035.0,0.168
2080.028,1035.5,0.168
2080.629,1036.0,0.168
2081.232,1036.5,0.168
2081.838,1037.0,0.168
2082.436,1037.5,0.168
2083.031,1038.0,0.168
2083.634,1038.5,0.168
2084.235,1039.0,0.168
2084.836,1039.5,0.168
2085.439,1040.0,0.168
2086.043,1040.5,0.168
2086.646,1041.0,0.168
2087.249,1041.5,0.168
2087.853,1042.0,0.168
2088.453,1042.5,0.168
2089.053,1043.0,0.168
2089.655,1043.5,0.167
2090.257,1044.0,0.167
2090.861,1044.5,0.167
2091.46,1045.0,0.167
2092.058,1045.5,0.167
2092.66,1046.0,0.167
2093.26,1046.5,0.167
2093.858,1047.0,0.167
2094.457,1047.5,0.167
2095.058,1048.0,0.167
2095.66,1048.5,0.167
2096.264,1049.0,0.167
2096.868,1049.5,0.167
2097.467,1050.0,0.167
2098.065,1050.5,0.167
2098.668,1051.0,0.167
2099.268,1051.5,0.167
2099.863,1052.0,0.167
2100.466,1052.5,0.167
2101.071,1053.0,0.167
2101.673,1053.5,0.167
2102.27,1054.0,0.167
2102.861,1054.5,0.167
2103.415,1055.0,0.167
2103.958,1055.5,0.167
2104.893,1056.0,0.167
2105.885,1056.5,0.167
2106.786,1057.0,0.167
2107.669,1057.5,0.167
2108.564,1058.0,0.167
2109.483,1058.5,0.167
2110.436,1059.0,0.167
2111.44,1059.5,0.167
2112.498,1060.0,0.167
2113.602,1060.5,0.166
2114.762,1061.0,0.166
2115.973,1061.5,0.166
2117.289,1062.0,0.166
2118.675,1062.5,0.166
2120.119,1063.0,0.166
2124.0,1064.178,0.166
2134.0,1066.458,0.166
2144.0,1067.979,0.166
2154.0,1069.004,0.166
2164.0,1069.738,0.165
2174.0,1070.27,0.165
2184.0,1070.655,0.165
2194.0,1070.957,0.165
2204.0,1071.194,0.165
2214.0,1071.377,0.165
2224.0,1071.543,0.164
2234.0,1071.676,0.164
2244.0,1071.788,0.164
2254.0,1071.879,0.164
2264.0,1071.971,0.164
2274.0,1072.039,0.164
2284.0,1072.103,0.163
2294.0,1072.16,0.163
2304.0,1072.214,0.163
2314.0,1072.25,0.163
2324.0,1072.289,0.163
2334.0,1072.328,0.163
2344.0,1072.355,0.163
2354.0,1072.379,0.163
2364.0,1072.404,0.163
2374.0,1072.432,0.163
2384.0,1072.437,0.163
2394.0,1072.459,0.162
2404.0,1072.466,0.162
2414.0,1072.472,0.162
2424.0,1072.493,0.162
