Time (s),Temperature (K),Mass (mg)
0.0,304.968,0.98
5.0,304.956,0.979
12.0,304.9,0.978
20.0,304.88,0.977
29.0,304.848,0.976
40.0,304.793,0.975
51.0,304.779,0.974
63.0,304.74,0.973
81.0,304.691,0.972
95.0,304.67,0.971
114.0,304.645,0.97
141.0,304.588,0.969
165.0,304.565,0.968
202.0,304.514,0.967
249.0,304.493,0.966
253.0,304.479,0.967
257.0,304.493,0.966
310.0,304.446,0.965
390.0,304.406,0.964
513.0,304.411,0.963
544.0,304.385,0.964
564.0,304.397,0.963
882.0,304.392,0.962
945.0,304.4,0.963
964.0,304.397,0.962
1203.65,305.0,0.96
1204.814,305.5,0.96
1206.151,306.0,0.96
1207.879,306.5,0.96
1209.094,307.0,0.96
1210.15,307.5,0.96
1211.11,308.0,0.961
1212.067,308.5,0.962
1212.911,309.0,0.962
1213.784,309.5,0.963
1214.64,310.0,0.963
1215.478,310.5,0.963
1216.3,311.0,0.964
1217.108,311.5,0.964
1217.916,312.0,0.965
1218.704,312.5,0.965
1219.487,313.0,0.965
1220.268,313.5,0.965
1221.054,314.0,0.965
1221.846,314.5,0.965
1222.634,315.0,0.965
1223.396,315.5,0.965
1224.14,316.0,0.965
1224.9,316.5,0.965
1225.678,317.0,0.965
1226.445,317.5,0.965
1227.203,318.0,0.964
1227.968,318.5,0.964
1228.727,319.0,0.964
1229.504,319.5,0.964
1230.277,320.0,0.964
1231.028,320.5,0.963
1231.799,321.0,0.963
1232.557,321.5,0.963
1233.315,322.0,0.963
1234.078,322.5,0.963
1234.826,323.0,0.963
1235.594,323.5,0.963
1236.357,324.0,0.963
1237.113,324.5,0.962
1237.879,325.0,0.962
1238.62,325.5,0.962
1239.366,326.0,0.962
1240.123,326.5,0.962
1240.879,327.0,0.962
1241.652,327.5,0.962
1242.413,328.0,0.962
1243.16,328.5,0.962
1243.91,329.0,0.961
1244.671,329.5,0.961
1245.432,330.0,0.961
1246.19,330.5,0.961
1246.944,331.0,0.961
1247.708,331.5,0.961
1248.462,332.0,0.961
1249.214,332.5,0.961
1249.977,333.0,0.961
1250.74,333.5,0.961
1251.503,334.0,0.96
1252.263,334.5,0.96
1253.018,335.0,0.96
1253.766,335.5,0.96
1254.52,336.0,0.96
1255.276,336.5,0.96
1256.034,337.0,0.96
1256.798,337.5,0.96
1257.545,338.0,0.96
1258.296,338.5,0.96
1259.064,339.0,0.959
1259.831,339.5,0.959
1260.587,340.0,0.959
1261.342,340.5,0.959
1262.1,341.0,0.959
1262.858,341.5,0.959
1263.613,342.0,0.958
1264.367,342.5,0.958
1265.116,343.0,0.958
1265.853,343.5,0.958
1266.62,344.0,0.958
1267.394,344.5,0.958
1268.159,345.0,0.958
1268.897,345.5,0.958
1269.655,346.0,0.958
1270.407,346.5,0.958
1271.153,347.0,0.957
1271.913,347.5,0.957
1272.668,348.0,0.957
1273.427,348.5,0.957
1274.189,349.0,0.957
1274.944,349.5,0.957
1275.712,350.0,0.957
1276.462,350.5,0.957
1277.208,351.0,0.957
1277.971,351.5,0.956
1278.727,352.0,0.956
1279.48,352.5,0.956
1280.236,353.0,0.956
1280.998,353.5,0.956
1281.752,354.0,0.956
1282.508,354.5,0.956
1283.264,355.0,0.956
1284.015,355.5,0.956
1284.776,356.0,0.955
1285.532,356.5,0.955
1286.29,357.0,0.955
1287.051,357.5,0.955
1287.803,358.0,0.955
1288.565,358.5,0.955
1289.32,359.0,0.955
1290.061,359.5,0.955
1290.805,360.0,0.955
1291.569,360.5,0.955
1292.329,361.0,0.955
1293.075,361.5,0.955
1293.842,362.0,0.954
1294.605,362.5,0.954
1295.354,363.0,0.954
1296.091,363.5,0.954
1296.851,364.0,0.954
1297.607,364.5,0.954
1298.367,365.0,0.954
1299.126,365.5,0.954
1299.859,366.0,0.954
1300.61,366.5,0.954
1301.371,367.0,0.954
1302.133,367.5,0.954
1302.878,368.0,0.954
1303.63,368.5,0.953
1304.387,369.0,0.953
1305.143,369.5,0.953
1305.888,370.0,0.953
1306.653,370.5,0.953
1307.411,371.0,0.953
1308.159,371.5,0.953
1308.899,372.0,0.953
1309.656,372.5,0.953
1310.413,373.0,0.953
1311.168,373.5,0.953
1311.916,374.0,0.953
1312.668,374.5,0.953
1313.42,375.0,0.953
1314.172,375.5,0.953
1314.929,376.0,0.953
1315.684,376.5,0.953
1316.434,377.0,0.953
1317.18,377.5,0.953
1317.928,378.0,0.953
1318.685,378.5,0.953
1319.429,379.0,0.953
1320.174,379.5,0.953
1320.949,380.0,0.953
1321.694,380.5,0.953
1322.441,381.0,0.953
1323.193,381.5,0.953
1323.953,382.0,0.953
1324.696,382.5,0.953
1325.442,383.0,0.953
1326.193,383.5,0.953
1326.949,384.0,0.953
1327.698,384.5,0.953
1328.439,385.0,0.953
1329.182,385.5,0.953
1329.945,386.0,0.953
1330.683,386.5,0.953
1331.428,387.0,0.953
1332.178,387.5,0.952
1332.924,388.0,0.952
1333.67,388.5,0.952
1334.422,389.0,0.952
1335.178,389.5,0.952
1335.932,390.0,0.952
1336.682,390.5,0.952
1337.43,391.0,0.952
1338.176,391.5,0.952
1338.921,392.0,0.952
1339.668,392.5,0.952
1340.41,393.0,0.952
1341.149,393.5,0.952
1341.894,394.0,0.952
1342.648,394.5,0.952
1343.396,395.0,0.952
1344.139,395.5,0.952
1344.897,396.0,0.952
1345.64,396.5,0.952
1346.382,397.0,0.952
1347.127,397.5,0.952
1347.881,398.0,0.952
1348.619,398.5,0.952
1349.366,399.0,0.952
1350.122,399.5,0.952
1350.864,400.0,0.952
1351.597,400.5,0.952
1352.338,401.0,0.952
1353.089,401.5,0.952
1353.833,402.0,0.952
1354.583,402.5,0.952
1355.331,403.0,0.952
1356.073,403.5,0.952
1356.817,404.0,0.952
1357.566,404.5,0.952
1358.314,405.0,0.952
1359.057,405.5,0.952
1359.804,406.0,0.952
1360.542,406.5,0.952
1361.281,407.0,0.952
1362.027,407.5,0.952
1362.77,408.0,0.952
1363.503,408.5,0.952
1364.239,409.0,0.952
1364.991,409.5,0.952
1365.73,410.0,0.952
1366.468,410.5,0.952
1367.213,411.0,0.952
1367.974,411.5,0.952
1368.713,412.0,0.952
1369.442,412.5,0.952
1370.169,413.0,0.952
1370.912,413.5,0.952
1371.655,414.0,0.952
1372.4,414.5,0.952
1373.145,415.0,0.952
1373.882,415.5,0.952
1374.627,416.0,0.952
1375.372,416.5,0.952
1376.115,417.0,0.952
1376.853,417.5,0.952
1377.592,418.0,0.952
1378.335,418.5,0.952
1379.083,419.0,0.952
1379.824,419.5,0.952
1380.562,420.0,0.952
1381.295,420.5,0.952
1382.024,421.0,0.952
1382.782,421.5,0.952
1383.526,422.0,0.952
1384.259,422.5,0.952
1384.981,423.0,0.952
1385.729,423.5,0.952
1386.471,424.0,0.952
1387.207,424.5,0.952
1387.94,425.0,0.952
1388.673,425.5,0.952
1389.412,426.0,0.952
1390.155,426.5,0.952
1390.899,427.0,0.952
1391.641,427.5,0.952
1392.378,428.0,0.952
1393.11,428.5,0.952
1393.843,429.0,0.952
1394.59,429.5,0.952
1395.333,430.0,0.952
1396.067,430.5,0.952
1396.806,431.0,0.952
1397.55,431.5,0.952
1398.289,432.0,0.952
1399.018,432.5,0.952
1399.759,433.0,0.952
1400.493,433.5,0.952
1401.228,434.0,0.952
1401.975,434.5,0.952
1402.708,435.0,0.952
1403.447,435.5,0.952
1404.185,436.0,0.952
1404.913,436.5,0.951
1405.654,437.0,0.951
1406.386,437.5,0.951
1407.113,438.0,0.951
1407.856,438.5,0.951
1408.597,439.0,0.951
1409.339,439.5,0.951
1410.08,440.0,0.951
1410.806,440.5,0.951
1411.542,441.0,0.951
1412.286,441.5,0.951
1413.032,442.0,0.951
1413.753,442.5,0.951
1414.477,443.0,0.951
1415.204,443.5,0.951
1415.94,444.0,0.951
1416.678,444.5,0.951
1417.41,445.0,0.951
1418.139,445.5,0.951
1418.876,446.0,0.951
1419.608,446.5,0.95
1420.348,447.0,0.95
1421.094,447.5,0.95
1421.819,448.0,0.95
1422.545,448.5,0.95
1423.275,449.0,0.95
1424.012,449.5,0.95
1424.753,450.0,0.95
1425.484,450.5,0.95
1426.212,451.0,0.95
1426.944,451.5,0.95
1427.68,452.0,0.95
1428.416,452.5,0.95
1429.15,453.0,0.95
1429.888,453.5,0.95
1430.615,454.0,0.95
1431.345,454.5,0.95
1432.08,455.0,0.95
1432.823,455.5,0.95
1433.555,456.0,0.949
1434.282,456.5,0.949
1435.01,457.0,0.949
1435.748,457.5,0.949
1436.477,458.0,0.949
1437.203,458.5,0.949
1437.934,459.0,0.949
1438.668,459.5,0.949
1439.397,460.0,0.949
1440.123,460.5,0.949
1440.862,461.0,0.949
1441.595,461.5,0.949
1442.327,462.0,0.949
1443.061,462.5,0.948
1443.781,463.0,0.948
1444.509,463.5,0.948
1445.239,464.0,0.948
1445.969,464.5,0.948
1446.695,465.0,0.948
1447.426,465.5,0.948
1448.16,466.0,0.948
1448.892,466.5,0.948
1449.626,467.0,0.947
1450.355,467.5,0.947
1451.081,468.0,0.947
1451.813,468.5,0.947
1452.536,469.0,0.947
1453.266,469.5,0.947
1454.012,470.0,0.947
1454.745,470.5,0.947
1455.466,471.0,0.947
1456.186,471.5,0.946
1456.926,472.0,0.946
1457.652,472.5,0.946
1458.375,473.0,0.946
1459.101,473.5,0.946
1459.851,474.0,0.946
1460.582,474.5,0.946
1461.307,475.0,0.946
1462.031,475.5,0.945
1462.757,476.0,0.945
1463.493,476.5,0.945
1464.229,477.0,0.945
1464.955,477.5,0.945
1465.679,478.0,0.945
1466.406,478.5,0.945
1467.134,479.0,0.944
1467.857,479.5,0.944
1468.582,480.0,0.944
1469.315,480.5,0.944
1470.058,481.0,0.944
1470.796,481.5,0.944
1471.519,482.0,0.943
1472.239,482.5,0.943
1472.969,483.0,0.943
1473.691,483.5,0.943
1474.418,484.0,0.943
1475.147,484.5,0.943
1475.877,485.0,0.943
1476.608,485.5,0.942
1477.341,486.0,0.942
1478.075,486.5,0.942
1478.795,487.0,0.942
1479.52,487.5,0.942
1480.25,488.0,0.942
1480.985,488.5,0.942
1481.705,489.0,0.942
1482.432,489.5,0.942
1483.163,490.0,0.941
1483.89,490.5,0.941
1484.618,491.0,0.941
1485.347,491.5,0.941
1486.079,492.0,0.941
1486.823,492.5,0.941
1487.546,493.0,0.94
1488.269,493.5,0.94
1489.003,494.0,0.94
1489.716,494.5,0.94
1490.438,495.0,0.94
1491.165,495.5,0.94
1491.894,496.0,0.94
1492.619,496.5,0.939
1493.352,497.0,0.939
1494.091,497.5,0.939
1494.814,498.0,0.939
1495.531,498.5,0.939
1496.254,499.0,0.939
1496.994,499.5,0.939
1497.721,500.0,0.938
1498.447,500.5,0.938
1499.173,501.0,0.938
1499.898,501.5,0.938
1500.635,502.0,0.938
1501.366,502.5,0.938
1502.091,503.0,0.938
1502.82,503.5,0.937
1503.556,504.0,0.937
1504.287,504.5,0.937
1505.007,505.0,0.937
1505.746,505.5,0.937
1506.471,506.0,0.937
1507.189,506.5,0.937
1507.912,507.0,0.936
1508.639,507.5,0.936
1509.366,508.0,0.936
1510.094,508.5,0.936
1510.832,509.0,0.936
1511.559,509.5,0.935
1512.29,510.0,0.935
1513.029,510.5,0.935
1513.76,511.0,0.935
1514.475,511.5,0.935
1515.194,512.0,0.935
1515.947,512.5,0.934
1516.672,513.0,0.934
1517.399,513.5,0.934
1518.129,514.0,0.934
1518.854,514.5,0.933
1519.58,515.0,0.933
1520.308,515.5,0.933
1521.038,516.0,0.933
1521.765,516.5,0.933
1522.496,517.0,0.933
1523.231,517.5,0.932
1523.966,518.0,0.932
1524.679,518.5,0.932
1525.401,519.0,0.932
1526.131,519.5,0.931
1526.869,520.0,0.931
1527.597,520.5,0.931
1528.321,521.0,0.931
1529.046,521.5,0.93
1529.781,522.0,0.93
1530.515,522.5,0.929
1531.249,523.0,0.929
1531.98,523.5,0.929
1532.712,524.0,0.929
1533.444,524.5,0.929
1534.175,525.0,0.928
1534.896,525.5,0.928
1535.628,526.0,0.928
1536.357,526.5,0.928
1537.082,527.0,0.927
1537.816,527.5,0.927
1538.55,528.0,0.926
1539.28,528.5,0.926
1540.006,529.0,0.926
1540.734,529.5,0.926
1541.455,530.0,0.926
1542.181,530.5,0.925
1542.931,531.0,0.925
1543.664,531.5,0.924
1544.391,532.0,0.924
1545.115,532.5,0.924
1545.846,533.0,0.923
1546.58,533.5,0.923
1547.308,534.0,0.923
1548.029,534.5,0.922
1548.761,535.0,0.922
1549.495,535.5,0.922
1550.229,536.0,0.921
1550.965,536.5,0.921
1551.695,537.0,0.92
1552.419,537.5,0.92
1553.141,538.0,0.919
1553.87,538.5,0.919
1554.61,539.0,0.918
1555.344,539.5,0.918
1556.073,540.0,0.918
1556.821,540.5,0.917
1557.544,541.0,0.917
1558.264,541.5,0.917
1558.99,542.0,0.916
1559.725,542.5,0.915
1560.46,543.0,0.915
1561.194,543.5,0.915
1561.921,544.0,0.914
1562.66,544.5,0.913
1563.401,545.0,0.913
1564.14,545.5,0.913
1564.864,546.0,0.912
1565.591,546.5,0.911
1566.32,547.0,0.911
1567.05,547.5,0.911
1567.78,548.0,0.91
1568.52,548.5,0.909
1569.259,549.0,0.909
1569.988,549.5,0.908
1570.719,550.0,0.908
1571.448,550.5,0.908
1572.178,551.0,0.907
1572.919,551.5,0.906
1573.647,552.0,0.905
1574.375,552.5,0.905
1575.105,553.0,0.904
1575.847,553.5,0.904
1576.579,554.0,0.903
1577.306,554.5,0.903
1578.033,555.0,0.902
1578.774,555.5,0.901
1579.509,556.0,0.9
1580.241,556.5,0.9
1580.975,557.0,0.899
1581.704,557.5,0.898
1582.438,558.0,0.898
1583.174,558.5,0.898
1583.908,559.0,0.897
1584.633,559.5,0.896
1585.362,560.0,0.896
1586.095,560.5,0.895
1586.83,561.0,0.894
1587.559,561.5,0.893
1588.289,562.0,0.893
1589.022,562.5,0.892
1589.761,563.0,0.891
1590.496,563.5,0.891
1591.228,564.0,0.89
1591.959,564.5,0.889
1592.689,565.0,0.888
1593.426,565.5,0.888
1594.166,566.0,0.887
1594.892,566.5,0.886
1595.631,567.0,0.885
1596.368,567.5,0.885
1597.103,568.0,0.884
1597.845,568.5,0.883
1598.581,569.0,0.882
1599.314,569.5,0.882
1600.047,570.0,0.881
1600.782,570.5,0.88
1601.518,571.0,0.879
1602.253,571.5,0.878
1602.984,572.0,0.877
1603.724,572.5,0.876
1604.461,573.0,0.876
1605.195,573.5,0.875
1605.927,574.0,0.874
1606.662,574.5,0.873
1607.402,575.0,0.873
1608.143,575.5,0.872
1608.876,576.0,0.871
1609.611,576.5,0.87
1610.35,577.0,0.869
1611.091,577.5,0.868
1611.824,578.0,0.867
1612.557,578.5,0.866
1613.288,579.0,0.865
1614.017,579.5,0.864
1614.767,580.0,0.863
1615.499,580.5,0.863
1616.227,581.0,0.862
1616.965,581.5,0.86
1617.704,582.0,0.859
1618.443,582.5,0.859
1619.183,583.0,0.858
1619.926,583.5,0.856
1620.659,584.0,0.855
1621.396,584.5,0.855
1622.135,585.0,0.854
1622.872,585.5,0.852
1623.615,586.0,0.851
1624.354,586.5,0.85
1625.086,587.0,0.849
1625.829,587.5,0.848
1626.563,588.0,0.847
1627.303,588.5,0.845
1628.054,589.0,0.844
1628.777,589.5,0.843
1629.513,590.0,0.842
1630.253,590.5,0.841
1630.988,591.0,0.84
1631.727,591.5,0.839
1632.474,592.0,0.837
1633.224,592.5,0.836
1633.969,593.0,0.835
1634.698,593.5,0.834
1635.426,594.0,0.832
1636.158,594.5,0.831
1636.903,595.0,0.829
1637.654,595.5,0.828
1638.394,596.0,0.827
1639.124,596.5,0.826
1639.861,597.0,0.824
1640.6,597.5,0.823
1641.342,598.0,0.821
1642.087,598.5,0.82
1642.828,599.0,0.818
1643.557,599.5,0.817
1644.29,600.0,0.815
1645.035,600.5,0.814
1645.785,601.0,0.812
1646.525,601.5,0.811
1647.266,602.0,0.809
1648.016,602.5,0.808
1648.751,603.0,0.806
1649.491,603.5,0.805
1650.237,604.0,0.804
1650.991,604.5,0.802
1651.711,605.0,0.8
1652.448,605.5,0.798
1653.194,606.0,0.797
1653.931,606.5,0.795
1654.683,607.0,0.794
1655.433,607.5,0.792
1656.178,608.0,0.79
1656.912,608.5,0.788
1657.645,609.0,0.787
1658.387,609.5,0.785
1659.137,610.0,0.783
1659.88,610.5,0.781
1660.622,611.0,0.779
1661.363,611.5,0.777
1662.103,612.0,0.776
1662.842,612.5,0.773
1663.587,613.0,0.772
1664.335,613.5,0.77
1665.083,614.0,0.768
1665.821,614.5,0.766
1666.561,615.0,0.764
1667.298,615.5,0.762
1668.03,616.0,0.76
1668.789,616.5,0.758
1669.532,617.0,0.755
1670.269,617.5,0.753
1671.008,618.0,0.751
1671.762,618.5,0.749
1672.508,619.0,0.747
1673.249,619.5,0.745
1673.984,620.0,0.743
1674.734,620.5,0.741
1675.479,621.0,0.739
1676.219,621.5,0.736
1676.956,622.0,0.734
1677.706,622.5,0.732
1678.456,623.0,0.73
1679.206,623.5,0.727
1679.954,624.0,0.725
1680.696,624.5,0.723
1681.438,625.0,0.721
1682.182,625.5,0.718
1682.93,626.0,0.715
1683.676,626.5,0.713
1684.422,627.0,0.711
1685.168,627.5,0.708
1685.916,628.0,0.706
1686.659,628.5,0.704
1687.407,629.0,0.701
1688.157,629.5,0.699
1688.896,630.0,0.696
1689.647,630.5,0.694
1690.391,631.0,0.691
1691.13,631.5,0.689
1691.875,632.0,0.686
1692.628,632.5,0.683
1693.376,633.0,0.681
1694.118,633.5,0.679
1694.874,634.0,0.676
1695.62,634.5,0.674
1696.368,635.0,0.671
1697.12,635.5,0.669
1697.862,636.0,0.666
1698.61,636.5,0.663
1699.358,637.0,0.661
1700.104,637.5,0.658
1700.847,638.0,0.655
1701.595,638.5,0.653
1702.344,639.0,0.65
1703.09,639.5,0.647
1703.831,640.0,0.645
1704.585,640.5,0.642
1705.338,641.0,0.639
1706.085,641.5,0.636
1706.828,642.0,0.634
1707.574,642.5,0.631
1708.319,643.0,0.628
1709.061,643.5,0.625
1709.819,644.0,0.622
1710.574,644.5,0.619
1711.324,645.0,0.617
1712.071,645.5,0.614
1712.826,646.0,0.611
1713.579,646.5,0.608
1714.333,647.0,0.605
1715.087,647.5,0.602
1715.82,648.0,0.599
1716.568,648.5,0.596
1717.317,649.0,0.593
1718.062,649.5,0.59
1718.817,650.0,0.587
1719.576,650.5,0.584
1720.327,651.0,0.581
1721.07,651.5,0.578
1721.827,652.0,0.575
1722.582,652.5,0.572
1723.334,653.0,0.569
1724.085,653.5,0.566
1724.846,654.0,0.563
1725.596,654.5,0.56
1726.34,655.0,0.556
1727.085,655.5,0.553
1727.84,656.0,0.55
1728.593,656.5,0.547
1729.347,657.0,0.543
1730.103,657.5,0.54
1730.857,658.0,0.537
1731.608,658.5,0.533
1732.359,659.0,0.53
1733.111,659.5,0.526
1733.861,660.0,0.523
1734.614,660.5,0.52
1735.366,661.0,0.516
1736.114,661.5,0.512
1736.854,662.0,0.509
1737.613,662.5,0.506
1738.371,663.0,0.502
1739.122,663.5,0.498
1739.878,664.0,0.495
1740.639,664.5,0.491
1741.396,665.0,0.487
1742.149,665.5,0.483
1742.899,666.0,0.48
1743.657,666.5,0.476
1744.416,667.0,0.472
1745.172,667.5,0.468
1745.921,668.0,0.464
1746.675,668.5,0.461
1747.429,669.0,0.457
1748.184,669.5,0.453
1748.945,670.0,0.448
1749.686,670.5,0.445
1750.441,671.0,0.441
1751.204,671.5,0.437
1751.961,672.0,0.433
1752.716,672.5,0.429
1753.473,673.0,0.425
1754.229,673.5,0.421
1754.982,674.0,0.417
1755.735,674.5,0.413
1756.487,675.0,0.409
1757.241,675.5,0.405
1758.0,676.0,0.401
1758.759,676.5,0.396
1759.511,677.0,0.392
1760.263,677.5,0.389
1761.018,678.0,0.385
1761.776,678.5,0.381
1762.531,679.0,0.377
1763.289,679.5,0.373
1764.052,680.0,0.37
1764.799,680.5,0.366
1765.552,681.0,0.362
1766.305,681.5,0.358
1767.054,682.0,0.355
1767.808,682.5,0.351
1768.563,683.0,0.348
1769.32,683.5,0.344
1770.077,684.0,0.341
1770.83,684.5,0.338
1771.581,685.0,0.335
1772.337,685.5,0.332
1773.098,686.0,0.329
1773.848,686.5,0.326
1774.605,687.0,0.323
1775.36,687.5,0.32
1776.115,688.0,0.318
1776.869,688.5,0.315
1777.626,689.0,0.313
1778.381,689.5,0.311
1779.133,690.0,0.309
1779.882,690.5,0.306
1780.636,691.0,0.305
1781.389,691.5,0.303
1782.143,692.0,0.301
1782.905,692.5,0.299
1783.651,693.0,0.298
1784.397,693.5,0.297
1785.147,694.0,0.296
1785.905,694.5,0.294
1786.664,695.0,0.293
1787.427,695.5,0.292
1788.187,696.0,0.291
1788.934,696.5,0.29
1789.693,697.0,0.289
1790.444,697.5,0.289
1791.191,698.0,0.288
1791.943,698.5,0.287
1792.701,699.0,0.286
1793.457,699.5,0.286
1794.215,700.0,0.285
1794.982,700.5,0.285
1795.735,701.0,0.284
1796.486,701.5,0.284
1797.24,702.0,0.283
1798.003,702.5,0.283
1798.744,703.0,0.282
1799.496,703.5,0.282
1800.254,704.0,0.282
1801.011,704.5,0.281
1801.775,705.0,0.281
1802.535,705.5,0.28
1803.291,706.0,0.28
1804.045,706.5,0.28
1804.795,707.0,0.28
1805.548,707.5,0.279
1806.304,708.0,0.279
1807.063,708.5,0.279
1807.813,709.0,0.278
1808.574,709.5,0.278
1809.337,710.0,0.278
1810.096,710.5,0.278
1810.856,711.0,0.277
1811.608,711.5,0.277
1812.365,712.0,0.277
1813.127,712.5,0.277
1813.882,713.0,0.276
1814.633,713.5,0.276
1815.388,714.0,0.276
1816.148,714.5,0.275
1816.905,715.0,0.275
1817.658,715.5,0.275
1818.414,716.0,0.275
1819.173,716.5,0.274
1819.936,717.0,0.274
1820.692,717.5,0.274
1821.45,718.0,0.274
1822.207,718.5,0.273
1822.958,719.0,0.273
1823.712,719.5,0.273
1824.476,720.0,0.273
1825.24,720.5,0.272
1825.991,721.0,0.272
1826.753,721.5,0.272
1827.508,722.0,0.271
1828.26,722.5,0.271
1829.015,723.0,0.271
1829.768,723.5,0.271
1830.53,724.0,0.27
1831.291,724.5,0.27
1832.046,725.0,0.27
1832.807,725.5,0.27
1833.563,726.0,0.269
1834.321,726.5,0.269
1835.083,727.0,0.269
1835.841,727.5,0.268
1836.592,728.0,0.268
1837.345,728.5,0.268
1838.103,729.0,0.268
1838.874,729.5,0.268
1839.624,730.0,0.267
1840.382,730.5,0.267
1841.148,731.0,0.267
1841.906,731.5,0.267
1842.665,732.0,0.266
1843.425,732.5,0.266
1844.185,733.0,0.266
1844.945,733.5,0.266
1845.703,734.0,0.265
1846.458,734.5,0.265
1847.212,735.0,0.265
1847.968,735.5,0.265
1848.734,736.0,0.265
1849.492,736.5,0.265
1850.242,737.0,0.264
1850.984,737.5,0.264
1851.753,738.0,0.264
1852.517,738.5,0.263
1853.273,739.0,0.263
1854.024,739.5,0.263
1854.788,740.0,0.263
1855.549,740.5,0.263
1856.308,741.0,0.263
1857.062,741.5,0.262
1857.822,742.0,0.262
1858.584,742.5,0.262
1859.34,743.0,0.262
1860.093,743.5,0.262
1860.87,744.0,0.261
1861.625,744.5,0.261
1862.383,745.0,0.261
1863.146,745.5,0.261
1863.898,746.0,0.261
1864.651,746.5,0.26
1865.405,747.0,0.26
1866.163,747.5,0.26
1866.931,748.0,0.26
1867.682,748.5,0.259
1868.441,749.0,0.259
1869.204,749.5,0.259
1869.959,750.0,0.259
1870.719,750.5,0.259
1871.479,751.0,0.259
1872.239,751.5,0.258
1872.995,752.0,0.258
1873.753,752.5,0.258
1874.513,753.0,0.257
1875.268,753.5,0.257
1876.014,754.0,0.257
1876.784,754.5,0.257
1877.542,755.0,0.257
1878.297,755.5,0.257
1879.054,756.0,0.256
1879.81,756.5,0.256
1880.573,757.0,0.256
1881.334,757.5,0.256
1882.093,758.0,0.256
1882.864,758.5,0.256
1883.619,759.0,0.255
1884.374,759.5,0.255
1885.132,760.0,0.255
1885.882,760.5,0.255
1886.645,761.0,0.255
1887.402,761.5,0.255
1888.155,762.0,0.254
1888.922,762.5,0.254
1889.68,763.0,0.254
1890.439,763.5,0.254
1891.198,764.0,0.254
1891.96,764.5,0.254
1892.714,765.0,0.253
1893.47,765.5,0.253
1894.229,766.0,0.253
1894.986,766.5,0.253
1895.744,767.0,0.253
1896.505,767.5,0.253
1897.266,768.0,0.253
1898.023,768.5,0.252
1898.778,769.0,0.252
1899.537,769.5,0.252
1900.293,770.0,0.252
1901.043,770.5,0.252
1901.809,771.0,0.252
1902.573,771.5,0.251
1903.329,772.0,0.251
1904.077,772.5,0.251
1904.836,773.0,0.251
1905.593,773.5,0.251
1906.353,774.0,0.251
1907.117,774.5,0.251
1907.88,775.0,0.251
1908.633,775.5,0.25
1909.391,776.0,0.25
1910.152,776.5,0.25
1910.902,777.0,0.25
1911.656,777.5,0.25
1912.416,778.0,0.25
1913.181,778.5,0.25
1913.946,779.0,0.249
1914.693,779.5,0.249
1915.449,780.0,0.249
1916.211,780.5,0.249
1916.968,781.0,0.249
1917.722,781.5,0.249
1918.481,782.0,0.249
1919.243,782.5,0.249
1920.009,783.0,0.248
1920.763,783.5,0.248
1921.519,784.0,0.248
1922.278,784.5,0.248
1923.041,785.0,0.248
1923.795,785.5,0.248
1924.555,786.0,0.247
1925.31,786.5,0.247
1926.058,787.0,0.247
1926.825,787.5,0.247
1927.586,788.0,0.247
1928.349,788.5,0.247
1929.115,789.0,0.247
1929.869,789.5,0.247
1930.619,790.0,0.247
1931.372,790.5,0.247
1932.13,791.0,0.246
1932.897,791.5,0.246
1933.649,792.0,0.246
1934.402,792.5,0.246
1935.158,793.0,0.246
1935.915,793.5,0.246
1936.681,794.0,0.246
1937.44,794.5,0.246
1938.195,795.0,0.246
1938.954,795.5,0.246
1939.709,796.0,0.245
1940.467,796.5,0.245
1941.226,797.0,0.245
1941.986,797.5,0.245
1942.743,798.0,0.245
1943.504,798.5,0.245
1944.261,799.0,0.245
1945.008,799.5,0.245
1945.783,800.0,0.245
1946.536,800.5,0.245
1947.289,801.0,0.245
1948.055,801.5,0.244
1948.805,802.0,0.244
1949.561,802.5,0.244
1950.321,803.0,0.244
1951.083,803.5,0.244
1951.847,804.0,0.244
1952.602,804.5,0.244
1953.358,805.0,0.244
1954.118,805.5,0.244
1954.868,806.0,0.244
1955.632,806.5,0.243
1956.39,807.0,0.243
1957.139,807.5,0.243
1957.88,808.0,0.243
1958.633,808.5,0.243
1959.394,809.0,0.243
1960.156,809.5,0.243
1960.908,810.0,0.243
1961.665,810.5,0.243
1962.425,811.0,0.243
1963.187,811.5,0.243
1963.948,812.0,0.242
1964.71,812.5,0.242
1965.463,813.0,0.242
1966.216,813.5,0.242
1966.982,814.0,0.242
1967.735,814.5,0.242
1968.494,815.0,0.242
1969.256,815.5,0.242
1970.018,816.0,0.242
1970.78,816.5,0.242
1971.535,817.0,0.241
1972.286,817.5,0.241
1973.04,818.0,0.241
1973.804,818.5,0.241
1974.566,819.0,0.241
1975.321,819.5,0.241
1976.068,820.0,0.241
1976.826,820.5,0.241
1977.59,821.0,0.241
1978.351,821.5,0.241
1979.108,822.0,0.241
1979.868,822.5,0.24
1980.633,823.0,0.24
1981.387,823.5,0.24
1982.131,824.0,0.24
1982.895,824.5,0.24
1983.655,825.0,0.24
1984.414,825.5,0.24
1985.17,826.0,0.24
1985.916,826.5,0.24
1986.679,827.0,0.24
1987.439,827.5,0.24
1988.196,828.0,0.24
1988.949,828.5,0.239
1989.706,829.0,0.239
1990.46,829.5,0.239
1991.216,830.0,0.239
1991.982,830.5,0.239
1992.735,831.0,0.239
1993.496,831.5,0.239
1994.259,832.0,0.239
1995.015,832.5,0.239
1995.769,833.0,0.239
1996.529,833.5,0.239
1997.287,834.0,0.239
1998.039,834.5,0.239
1998.792,835.0,0.239
1999.557,835.5,0.238
2000.32,836.0,0.238
2001.075,836.5,0.238
2001.837,837.0,0.238
2002.593,837.5,0.238
2003.352,838.0,0.238
2004.12,838.5,0.238
2004.902,839.0,0.238
2005.659,839.5,0.238
2006.414,840.0,0.238
2007.171,840.5,0.238
2007.934,841.0,0.238
2008.686,841.5,0.238
2009.439,842.0,0.238
2010.195,842.5,0.238
2010.959,843.0,0.237
2011.72,843.5,0.237
2012.471,844.0,0.237
2013.223,844.5,0.237
2013.991,845.0,0.237
2014.75,845.5,0.237
2015.5,846.0,0.237
2016.252,846.5,0.237
2017.015,847.0,0.237
2017.775,847.5,0.237
2018.535,848.0,0.237
2019.294,848.5,0.237
2020.052,849.0,0.236
2020.797,849.5,0.236
2021.554,850.0,0.236
2022.312,850.5,0.236
2023.067,851.0,0.236
2023.833,851.5,0.236
2024.587,852.0,0.236
2025.342,852.5,0.236
2026.103,853.0,0.236
2026.857,853.5,0.236
2027.623,854.0,0.236
2028.384,854.5,0.236
2029.138,855.0,0.236
2029.894,855.5,0.236
2030.656,856.0,0.236
2031.409,856.5,0.236
2032.157,857.0,0.236
2032.916,857.5,0.235
2033.685,858.0,0.235
2034.444,858.5,0.235
2035.196,859.0,0.235
2035.945,859.5,0.235
2036.705,860.0,0.235
2037.462,860.5,0.235
2038.216,861.0,0.235
2038.973,861.5,0.235
2039.727,862.0,0.235
2040.484,862.5,0.235
2041.242,863.0,0.235
2041.998,863.5,0.234
2042.756,864.0,0.234
2043.511,864.5,0.234
2044.261,865.0,0.234
2045.006,865.5,0.234
2045.78,866.0,0.234
2046.538,866.5,0.234
2047.293,867.0,0.234
2048.051,867.5,0.234
2048.799,868.0,0.234
2049.555,868.5,0.234
2050.313,869.0,0.234
2051.067,869.5,0.234
2051.817,870.0,0.234
2052.579,870.5,0.234
2053.339,871.0,0.234
2054.092,871.5,0.233
2054.846,872.0,0.233
2055.605,872.5,0.233
2056.363,873.0,0.233
2057.118,873.5,0.233
2057.867,874.0,0.233
2058.622,874.5,0.233
2059.379,875.0,0.233
2060.138,875.5,0.233
2060.894,876.0,0.233
2061.647,876.5,0.233
2062.401,877.0,0.233
2063.158,877.5,0.233
2063.918,878.0,0.233
2064.671,878.5,0.233
2065.423,879.0,0.233
2066.175,879.5,0.232
2066.932,880.0,0.232
2067.684,880.5,0.232
2068.441,881.0,0.232
2069.201,881.5,0.232
2069.963,882.0,0.232
2070.73,882.5,0.232
2071.488,883.0,0.232
2072.241,883.5,0.232
2072.992,884.0,0.232
2073.736,884.5,0.231
2074.486,885.0,0.231
2075.241,885.5,0.231
2075.995,886.0,0.231
2076.755,886.5,0.231
2077.508,887.0,0.231
2078.261,887.5,0.231
2079.018,888.0,0.231
2079.773,888.5,0.231
2080.527,889.0,0.231
2081.283,889.5,0.231
2082.042,890.0,0.231
2082.785,890.5,0.231
2083.537,891.0,0.231
2084.295,891.5,0.231
2085.054,892.0,0.231
2085.806,892.5,0.231
2086.564,893.0,0.23
2087.323,893.5,0.23
2088.08,894.0,0.23
2088.83,894.5,0.23
2089.586,895.0,0.23
2090.342,895.5,0.23
2091.096,896.0,0.23
2091.858,896.5,0.23
2092.609,897.0,0.23
2093.363,897.5,0.23
2094.121,898.0,0.23
2094.868,898.5,0.23
2095.625,899.0,0.23
2096.379,899.5,0.23
2097.131,900.0,0.23
2097.889,900.5,0.23
2098.64,901.0,0.23
2099.392,901.5,0.23
2100.143,902.0,0.23
2100.89,902.5,0.23
2101.653,903.0,0.23
2102.411,903.5,0.23
2103.162,904.0,0.229
2103.912,904.5,0.229
2104.66,905.0,0.229
2105.413,905.5,0.229
2106.17,906.0,0.229
2106.929,906.5,0.229
2107.685,907.0,0.229
2108.442,907.5,0.229
2109.196,908.0,0.229
2109.943,908.5,0.229
2110.702,909.0,0.229
2111.458,909.5,0.229
2112.211,910.0,0.229
2112.964,910.5,0.229
2113.709,911.0,0.229
2114.464,911.5,0.229
2115.222,912.0,0.229
2115.97,912.5,0.229
2116.732,913.0,0.229
2117.481,913.5,0.229
2118.228,914.0,0.228
2118.983,914.5,0.228
2119.736,915.0,0.228
2120.492,915.5,0.228
2121.248,916.0,0.228
2122.003,916.5,0.228
2122.758,917.0,0.228
2123.515,917.5,0.228
2124.274,918.0,0.228
2125.033,918.5,0.228
2125.78,919.0,0.228
2126.533,919.5,0.228
2127.285,920.0,0.228
2128.032,920.5,0.228
2128.786,921.0,0.228
2129.542,921.5,0.228
2130.295,922.0,0.228
2131.045,922.5,0.228
2131.802,923.0,0.228
2132.556,923.5,0.228
2133.313,924.0,0.228
2134.074,924.5,0.227
2134.817,925.0,0.227
2135.572,925.5,0.227
2136.327,926.0,0.227
2137.08,926.5,0.227
2137.845,927.0,0.227
2138.602,927.5,0.227
2139.355,928.0,0.227
2140.106,928.5,0.227
2140.85,929.0,0.227
2141.605,929.5,0.227
2142.357,930.0,0.227
2143.103,930.5,0.227
2143.862,931.0,0.227
2144.617,931.5,0.227
2145.37,932.0,0.227
2146.124,932.5,0.227
2146.882,933.0,0.227
2147.632,933.5,0.227
2148.384,934.0,0.227
2149.139,934.5,0.226
2149.896,935.0,0.226
2150.65,935.5,0.226
2151.404,936.0,0.226
2152.157,936.5,0.226
2152.91,937.0,0.226
2153.665,937.5,0.226
2154.419,938.0,0.226
2155.173,938.5,0.226
2155.93,939.0,0.226
2156.678,939.5,0.226
2157.433,940.0,0.226
2158.192,940.5,0.226
2158.94,941.0,0.226
2159.688,941.5,0.226
2160.444,942.0,0.226
2161.201,942.5,0.226
2161.948,943.0,0.226
2162.694,943.5,0.225
2163.446,944.0,0.225
2164.204,944.5,0.225
2164.964,945.0,0.225
2165.709,945.5,0.225
2166.462,946.0,0.225
2167.217,946.5,0.225
2167.967,947.0,0.225
2168.73,947.5,0.225
2169.481,948.0,0.225
2170.23,948.5,0.225
2170.991,949.0,0.225
2171.75,949.5,0.225
2172.504,950.0,0.225
2173.252,950.5,0.225
2173.993,951.0,0.225
2174.749,951.5,0.225
2175.504,952.0,0.225
2176.261,952.5,0.225
2177.024,953.0,0.225
2177.762,953.5,0.225
2178.51,954.0,0.225
2179.264,954.5,0.225
2180.021,955.0,0.224
2180.78,955.5,0.224
2181.533,956.0,0.224
2182.284,956.5,0.224
2183.035,957.0,0.224
2183.786,957.5,0.224
2184.533,958.0,0.224
2185.284,958.5,0.224
2186.045,959.0,0.224
2186.792,959.5,0.224
2187.54,960.0,0.224
2188.292,960.5,0.224
2189.046,961.0,0.224
2189.796,961.5,0.224
2190.549,962.0,0.224
2191.306,962.5,0.224
2192.066,963.0,0.224
2192.813,963.5,0.224
2193.569,964.0,0.224
2194.322,964.5,0.224
2195.068,965.0,0.224
2195.826,965.5,0.224
2196.579,966.0,0.224
2197.332,966.5,0.224
2198.087,967.0,0.224
2198.834,967.5,0.224
2199.591,968.0,0.224
2200.346,968.5,0.224
2201.097,969.0,0.224
2201.855,969.5,0.224
2202.611,970.0,0.224
2203.363,970.5,0.224
2204.11,971.0,0.224
2204.86,971.5,0.224
2205.607,972.0,0.223
2206.354,972.5,0.223
2207.106,973.0,0.223
2207.864,973.5,0.223
2208.617,974.0,0.223
2209.37,974.5,0.223
2210.121,975.0,0.223
2210.868,975.5,0.223
2211.623,976.0,0.223
2212.378,976.5,0.223
2213.13,977.0,0.223
2213.88,977.5,0.223
2214.634,978.0,0.223
2215.386,978.5,0.223
2216.134,979.0,0.223
2216.888,979.5,0.223
2217.634,980.0,0.223
2218.387,980.5,0.223
2219.144,981.0,0.223
2219.886,981.5,0.223
2220.635,982.0,0.223
2221.386,982.5,0.223
2222.139,983.0,0.223
2222.894,983.5,0.223
2223.642,984.0,0.223
2224.392,984.5,0.223
2225.145,985.0,0.223
2225.9,985.5,0.223
2226.649,986.0,0.223
2227.401,986.5,0.223
2228.155,987.0,0.223
2228.9,987.5,0.223
2229.65,988.0,0.223
2230.405,988.5,0.223
2231.16,989.0,0.222
2231.909,989.5,0.222
2232.661,990.0,0.222
2233.409,990.5,0.222
2234.154,991.0,0.222
2234.901,991.5,0.222
2235.657,992.0,0.222
2236.409,992.5,0.222
2237.157,993.0,0.222
2237.899,993.5,0.222
2238.654,994.0,0.222
2239.407,994.5,0.222
2240.156,995.0,0.222
2240.898,995.5,0.222
2241.656,996.0,0.222
2242.41,996.5,0.222
2243.159,997.0,0.222
2243.909,997.5,0.222
2244.662,998.0,0.222
2245.413,998.5,0.222
2246.164,999.0,0.222
2246.921,999.5,0.222
2247.669,1000.0,0.222
2248.424,1000.5,0.222
2249.182,1001.0,0.222
2249.924,1001.5,0.222
2250.671,1002.0,0.222
2251.417,1002.5,0.222
2252.164,1003.0,0.222
2252.914,1003.5,0.222
2253.671,1004.0,0.222
2254.421,1004.5,0.222
2255.166,1005.0,0.222
2255.915,1005.5,0.222
2256.665,1006.0,0.221
2257.416,1006.5,0.221
2258.166,1007.0,0.221
2258.912,1007.5,0.221
2259.664,1008.0,0.221
2260.415,1008.5,0.221
2261.164,1009.0,0.221
2261.909,1009.5,0.221
2262.66,1010.0,0.221
2263.413,1010.5,0.221
2264.166,1011.0,0.221
2264.913,1011.5,0.221
2265.66,1012.0,0.221
2266.409,1012.5,0.221
2267.159,1013.0,0.221
2267.905,1013.5,0.221
2268.653,1014.0,0.221
2269.403,1014.5,0.221
2270.153,1015.0,0.221
2270.897,1015.5,0.221
2271.654,1016.0,0.221
2272.41,1016.5,0.221
2273.163,1017.0,0.221
2273.913,1017.5,0.221
2274.652,1018.0,0.221
2275.401,1018.5,0.221
2276.156,1019.0,0.221
2276.9,1019.5,0.221
2277.646,1020.0,0.221
2278.398,1020.5,0.221
2279.153,1021.0,0.221
2279.904,1021.5,0.221
2280.655,1022.0,0.221
2281.403,1022.5,0.221
2282.15,1023.0,0.221
2282.898,1023.5,0.221
2283.653,1024.0,0.221
2284.407,1024.5,0.221
2285.158,1025.0,0.221
2285.902,1025.5,0.22
2286.65,1026.0,0.22
2287.396,1026.5,0.22
2288.141,1027.0,0.22
2288.889,1027.5,0.22
2289.644,1028.0,0.22
2290.396,1028.5,0.22
2291.143,1029.0,0.22
2291.891,1029.5,0.22
2292.64,1030.0,0.22
2293.391,1030.5,0.22
2294.144,1031.0,0.22
2294.904,1031.5,0.22
2295.654,1032.0,0.22
2296.398,1032.5,0.22
2297.138,1033.0,0.22
2297.877,1033.5,0.22
2298.628,1034.0,0.22
2299.381,1034.5,0.22
2300.133,1035.0,0.22
2300.883,1035.5,0.22
2301.63,1036.0,0.22
2302.379,1036.5,0.22
2303.13,1037.0,0.22
2303.876,1037.5,0.22
2304.625,1038.0,0.22
2305.381,1038.5,0.22
2306.138,1039.0,0.22
2306.879,1039.5,0.22
2307.625,1040.0,0.22
2308.373,1040.5,0.22
2309.122,1041.0,0.22
2309.866,1041.5,0.22
2310.613,1042.0,0.22
2311.365,1042.5,0.22
2312.12,1043.0,0.22
2312.859,1043.5,0.22
2313.615,1044.0,0.22
2314.364,1044.5,0.22
2315.107,1045.0,0.22
2315.863,1045.5,0.219
2316.616,1046.0,0.219
2317.365,1046.5,0.219
2318.111,1047.0,0.219
2318.858,1047.5,0.219
2319.605,1048.0,0.219
2320.351,1048.5,0.219
2321.097,1049.0,0.219
2321.855,1049.5,0.219
2322.608,1050.0,0.219
2323.358,1050.5,0.219
2324.106,1051.0,0.219
2324.85,1051.5,0.219
2325.609,1052.0,0.219
2326.368,1052.5,0.219
2327.12,1053.0,0.219
2327.863,1053.5,0.219
2328.612,1054.0,0.219
2329.364,1054.5,0.219
2330.118,1055.0,0.219
2330.865,1055.5,0.219
2331.616,1056.0,0.219
2332.366,1056.5,0.219
2333.115,1057.0,0.219
2333.859,1057.5,0.219
2334.539,1058.0,0.218
2335.691,1058.5,0.218
2337.336,1059.0,0.218
2338.47,1059.5,0.218
2339.565,1060.0,0.218
2340.705,1060.5,0.218
2341.916,1061.0,0.218
2343.162,1061.5,0.218
2344.482,1062.0,0.218
2345.87,1062.5,0.218
2347.346,1063.0,0.218
2348.923,1063.5,0.218
2350.607,1064.0,0.218
2355.0,1065.157,0.218
2365.0,1067.165,0.218
2375.0,1068.534,0.218
2385.0,1069.48,0.218
2395.0,1070.15,0.217
2405.0,1070.637,0.217
2415.0,1070.979,0.217
2425.0,1071.243,0.217
2435.0,1071.454,0.217
2445.0,1071.618,0.217
2455.0,1071.754,0.217
2465.0,1071.856,0.216
2475.0,1071.937,0.216
2485.0,1072.025,0.216
2495.0,1072.096,0.216
2505.0,1072.147,0.216
2515.0,1072.2,0.216
2525.0,1072.245,0.216
2535.0,1072.287,0.216
2545.0,1072.325,0.215
2555.0,1072.348,0.216
2565.0,1072.377,0.215
2575.0,1072.403,0.215
2585.0,1072.427,0.215
2595.0,1072.449,0.215
2605.0,1072.464,0.215
2615.0,1072.479,0.215
2625.0,1072.492,0.215
2635.0,1072.497,0.215
2645.0,1072.512,0.215
2655.0,1072.517,0.215
