Time (s),Temperature (K),Mass (mg)
0.0,304.978,0.96
3.0,304.983,0.959
10.0,304.931,0.958
18.0,304.897,0.957
26.0,304.847,0.956
35.0,304.828,0.955
45.0,304.805,0.954
54.0,304.766,0.953
66.0,304.732,0.952
81.0,304.721,0.951
93.0,304.702,0.95
106.0,304.678,0.949
132.0,304.628,0.948
151.0,304.612,0.947
179.0,304.571,0.946
206.0,304.548,0.945
254.0,304.515,0.944
309.0,304.489,0.943
362.0,304.48,0.942
475.0,304.43,0.941
486.0,304.439,0.942
498.0,304.427,0.941
614.0,304.415,0.94
620.0,304.425,0.941
703.0,304.404,0.94
723.0,304.407,0.941
725.0,304.381,0.94
997.0,304.404,0.939
1013.0,304.392,0.94
1087.0,304.4,0.939
1103.0,304.41,0.94
1134.0,304.393,0.939
1154.0,304.416,0.94
1183.0,304.422,0.939
1195.0,304.427,0.94
1198.0,304.41,0.939
1203.788,305.0,0.938
1204.943,305.5,0.938
1206.248,306.0,0.937
1207.697,306.5,0.937
1208.865,307.0,0.937
1209.88,307.5,0.938
1210.812,308.0,0.938
1211.748,308.5,0.939
1212.617,309.0,0.939
1213.459,309.5,0.939
1214.297,310.0,0.94
1215.128,310.5,0.94
1215.946,311.0,0.941
1216.721,311.5,0.941
1217.506,312.0,0.941
1218.29,312.5,0.941
1219.063,313.0,0.942
1219.848,313.5,0.942
1220.631,314.0,0.942
1221.404,314.5,0.942
1222.169,315.0,0.942
1222.938,315.5,0.942
1223.699,316.0,0.942
1224.465,316.5,0.942
1225.232,317.0,0.941
1225.994,317.5,0.941
1226.755,318.0,0.941
1227.515,318.5,0.941
1228.273,319.0,0.941
1229.029,319.5,0.941
1229.782,320.0,0.94
1230.546,320.5,0.94
1231.312,321.0,0.94
1232.073,321.5,0.94
1232.838,322.0,0.94
1233.585,322.5,0.939
1234.34,323.0,0.939
1235.109,323.5,0.939
1235.868,324.0,0.939
1236.615,324.5,0.939
1237.365,325.0,0.939
1238.123,325.5,0.939
1238.883,326.0,0.939
1239.643,326.5,0.938
1240.405,327.0,0.938
1241.166,327.5,0.938
1241.921,328.0,0.938
1242.669,328.5,0.938
1243.422,329.0,0.938
1244.181,329.5,0.938
1244.941,330.0,0.938
1245.714,330.5,0.938
1246.478,331.0,0.938
1247.231,331.5,0.937
1247.973,332.0,0.937
1248.73,332.5,0.937
1249.498,333.0,0.937
1250.258,333.5,0.937
1250.991,334.0,0.937
1251.758,334.5,0.937
1252.516,335.0,0.937
1253.264,335.5,0.937
1254.003,336.0,0.937
1254.769,336.5,0.936
1255.535,337.0,0.936
1256.303,337.5,0.936
1257.07,338.0,0.936
1257.812,338.5,0.936
1258.569,339.0,0.936
1259.333,339.5,0.936
1260.096,340.0,0.936
1260.854,340.5,0.935
1261.603,341.0,0.935
1262.347,341.5,0.935
1263.091,342.0,0.935
1263.85,342.5,0.935
1264.615,343.0,0.935
1265.38,343.5,0.935
1266.139,344.0,0.934
1266.889,344.5,0.934
1267.641,345.0,0.934
1268.39,345.5,0.934
1269.14,346.0,0.934
1269.909,346.5,0.934
1270.673,347.0,0.934
1271.424,347.5,0.934
1272.171,348.0,0.934
1272.934,348.5,0.933
1273.698,349.0,0.933
1274.455,349.5,0.933
1275.205,350.0,0.933
1275.948,350.5,0.933
1276.699,351.0,0.933
1277.45,351.5,0.933
1278.205,352.0,0.933
1278.969,352.5,0.932
1279.748,353.0,0.932
1280.499,353.5,0.932
1281.249,354.0,0.932
1282.022,354.5,0.932
1282.77,355.0,0.932
1283.513,355.5,0.932
1284.267,356.0,0.932
1285.042,356.5,0.931
1285.783,357.0,0.931
1286.535,357.5,0.931
1287.295,358.0,0.931
1288.062,358.5,0.931
1288.801,359.0,0.931
1289.557,359.5,0.931
1290.311,360.0,0.931
1291.051,360.5,0.931
1291.797,361.0,0.931
1292.554,361.5,0.93
1293.316,362.0,0.93
1294.078,362.5,0.93
1294.829,363.0,0.93
1295.598,363.5,0.93
1296.358,364.0,0.93
1297.101,364.5,0.93
1297.848,365.0,0.93
1298.598,365.5,0.93
1299.354,366.0,0.93
1300.114,366.5,0.93
1300.871,367.0,0.93
1301.635,367.5,0.93
1302.384,368.0,0.93
1303.122,368.5,0.929
1303.874,369.0,0.929
1304.617,369.5,0.929
1305.373,370.0,0.929
1306.137,370.5,0.929
1306.873,371.0,0.929
1307.63,371.5,0.929
1308.387,372.0,0.929
1309.141,372.5,0.929
1309.9,373.0,0.929
1310.651,373.5,0.929
1311.407,374.0,0.929
1312.165,374.5,0.929
1312.911,375.0,0.929
1313.66,375.5,0.929
1314.408,376.0,0.929
1315.159,376.5,0.929
1315.925,377.0,0.929
1316.664,377.5,0.929
1317.408,378.0,0.929
1318.159,378.5,0.929
1318.917,379.0,0.929
1319.662,379.5,0.928
1320.416,380.0,0.928
1321.173,380.5,0.928
1321.919,381.0,0.928
1322.674,381.5,0.928
1323.422,382.0,0.928
1324.168,382.5,0.928
1324.924,383.0,0.928
1325.673,383.5,0.928
1326.424,384.0,0.928
1327.179,384.5,0.928
1327.932,385.0,0.928
1328.673,385.5,0.928
1329.419,386.0,0.928
1330.172,386.5,0.928
1330.932,387.0,0.928
1331.671,387.5,0.928
1332.411,388.0,0.928
1333.158,388.5,0.928
1333.926,389.0,0.928
1334.665,389.5,0.928
1335.417,390.0,0.928
1336.178,390.5,0.928
1336.921,391.0,0.928
1337.66,391.5,0.928
1338.407,392.0,0.928
1339.16,392.5,0.928
1339.909,393.0,0.928
1340.656,393.5,0.928
1341.402,394.0,0.928
1342.146,394.5,0.928
1342.894,395.0,0.928
1343.636,395.5,0.928
1344.383,396.0,0.928
1345.137,396.5,0.928
1345.887,397.0,0.928
1346.631,397.5,0.928
1347.373,398.0,0.928
1348.117,398.5,0.928
1348.868,399.0,0.928
1349.608,399.5,0.928
1350.351,400.0,0.928
1351.1,400.5,0.928
1351.85,401.0,0.928
1352.589,401.5,0.928
1353.332,402.0,0.928
1354.083,402.5,0.928
1354.824,403.0,0.928
1355.57,403.5,0.928
1356.322,404.0,0.928
1357.078,404.5,0.928
1357.813,405.0,0.928
1358.548,405.5,0.928
1359.29,406.0,0.928
1360.044,406.5,0.928
1360.781,407.0,0.928
1361.526,407.5,0.928
1362.274,408.0,0.928
1363.018,408.5,0.928
1363.752,409.0,0.928
1364.493,409.5,0.928
1365.237,410.0,0.928
1365.976,410.5,0.928
1366.715,411.0,0.928
1367.455,411.5,0.928
1368.196,412.0,0.928
1368.94,412.5,0.928
1369.688,413.0,0.928
1370.44,413.5,0.928
1371.188,414.0,0.928
1371.918,414.5,0.928
1372.66,415.0,0.927
1373.398,415.5,0.927
1374.135,416.0,0.927
1374.885,416.5,0.927
1375.63,417.0,0.927
1376.372,417.5,0.927
1377.109,418.0,0.927
1377.842,418.5,0.927
1378.583,419.0,0.927
1379.329,419.5,0.927
1380.077,420.0,0.927
1380.814,420.5,0.927
1381.549,421.0,0.927
1382.287,421.5,0.927
1383.029,422.0,0.927
1383.755,422.5,0.927
1384.496,423.0,0.927
1385.241,423.5,0.927
1385.981,424.0,0.927
1386.723,424.5,0.927
1387.466,425.0,0.927
1388.21,425.5,0.927
1388.951,426.0,0.927
1389.689,426.5,0.927
1390.431,427.0,0.927
1391.173,427.5,0.927
1391.9,428.0,0.927
1392.638,428.5,0.927
1393.381,429.0,0.927
1394.126,429.5,0.927
1394.869,430.0,0.927
1395.608,430.5,0.927
1396.347,431.0,0.927
1397.087,431.5,0.927
1397.826,432.0,0.927
1398.562,432.5,0.927
1399.293,433.0,0.927
1400.018,433.5,0.927
1400.765,434.0,0.927
1401.5,434.5,0.927
1402.233,435.0,0.927
1402.973,435.5,0.927
1403.715,436.0,0.927
1404.456,436.5,0.927
1405.194,437.0,0.927
1405.927,437.5,0.927
1406.665,438.0,0.927
1407.399,438.5,0.927
1408.13,439.0,0.927
1408.867,439.5,0.927
1409.609,440.0,0.926
1410.352,440.5,0.926
1411.092,441.0,0.926
1411.82,441.5,0.926
1412.543,442.0,0.926
1413.276,442.5,0.926
1414.025,443.0,0.926
1414.76,443.5,0.926
1415.491,444.0,0.926
1416.225,444.5,0.926
1416.969,445.0,0.926
1417.703,445.5,0.926
1418.441,446.0,0.926
1419.177,446.5,0.926
1419.895,447.0,0.926
1420.638,447.5,0.926
1421.37,448.0,0.926
1422.089,448.5,0.926
1422.831,449.0,0.926
1423.572,449.5,0.926
1424.307,450.0,0.926
1425.034,450.5,0.926
1425.764,451.0,0.925
1426.5,451.5,0.925
1427.237,452.0,0.925
1427.969,452.5,0.925
1428.704,453.0,0.925
1429.444,453.5,0.925
1430.184,454.0,0.925
1430.913,454.5,0.925
1431.634,455.0,0.925
1432.368,455.5,0.925
1433.112,456.0,0.925
1433.836,456.5,0.925
1434.562,457.0,0.925
1435.291,457.5,0.925
1436.026,458.0,0.925
1436.761,458.5,0.924
1437.496,459.0,0.924
1438.231,459.5,0.924
1438.966,460.0,0.924
1439.68,460.5,0.924
1440.409,461.0,0.924
1441.148,461.5,0.924
1441.883,462.0,0.924
1442.618,462.5,0.924
1443.355,463.0,0.924
1444.093,463.5,0.923
1444.819,464.0,0.923
1445.546,464.5,0.923
1446.279,465.0,0.923
1447.022,465.5,0.923
1447.751,466.0,0.923
1448.477,466.5,0.923
1449.201,467.0,0.923
1449.926,467.5,0.923
1450.67,468.0,0.922
1451.403,468.5,0.922
1452.125,469.0,0.922
1452.849,469.5,0.922
1453.587,470.0,0.922
1454.317,470.5,0.922
1455.035,471.0,0.922
1455.772,471.5,0.922
1456.512,472.0,0.921
1457.249,472.5,0.921
1457.977,473.0,0.921
1458.706,473.5,0.921
1459.429,474.0,0.921
1460.152,474.5,0.921
1460.888,475.0,0.921
1461.615,475.5,0.92
1462.344,476.0,0.92
1463.077,476.5,0.92
1463.813,477.0,0.92
1464.541,477.5,0.92
1465.269,478.0,0.92
1465.999,478.5,0.92
1466.725,479.0,0.919
1467.451,479.5,0.919
1468.176,480.0,0.919
1468.905,480.5,0.919
1469.641,481.0,0.919
1470.373,481.5,0.919
1471.102,482.0,0.919
1471.833,482.5,0.919
1472.564,483.0,0.918
1473.294,483.5,0.918
1474.023,484.0,0.918
1474.757,484.5,0.918
1475.479,485.0,0.918
1476.199,485.5,0.918
1476.925,486.0,0.918
1477.665,486.5,0.917
1478.401,487.0,0.917
1479.13,487.5,0.917
1479.855,488.0,0.917
1480.58,488.5,0.917
1481.305,489.0,0.917
1482.032,489.5,0.917
1482.771,490.0,0.916
1483.502,490.5,0.916
1484.231,491.0,0.916
1484.963,491.5,0.916
1485.681,492.0,0.916
1486.406,492.5,0.916
1487.137,493.0,0.915
1487.873,493.5,0.915
1488.608,494.0,0.915
1489.335,494.5,0.915
1490.056,495.0,0.915
1490.791,495.5,0.915
1491.518,496.0,0.914
1492.245,496.5,0.914
1492.979,497.0,0.914
1493.694,497.5,0.914
1494.422,498.0,0.914
1495.157,498.5,0.914
1495.886,499.0,0.914
1496.619,499.5,0.913
1497.347,500.0,0.913
1498.072,500.5,0.913
1498.811,501.0,0.913
1499.537,501.5,0.913
1500.262,502.0,0.913
1500.993,502.5,0.913
1501.711,503.0,0.912
1502.438,503.5,0.912
1503.172,504.0,0.912
1503.905,504.5,0.912
1504.626,505.0,0.912
1505.355,505.5,0.912
1506.093,506.0,0.912
1506.822,506.5,0.911
1507.547,507.0,0.911
1508.271,507.5,0.911
1508.994,508.0,0.911
1509.729,508.5,0.911
1510.46,509.0,0.911
1511.188,509.5,0.91
1511.918,510.0,0.91
1512.651,510.5,0.91
1513.381,511.0,0.91
1514.109,511.5,0.909
1514.842,512.0,0.909
1515.576,512.5,0.909
1516.308,513.0,0.909
1517.035,513.5,0.909
1517.767,514.0,0.908
1518.492,514.5,0.908
1519.218,515.0,0.908
1519.953,515.5,0.908
1520.686,516.0,0.907
1521.414,516.5,0.907
1522.14,517.0,0.907
1522.87,517.5,0.907
1523.609,518.0,0.906
1524.341,518.5,0.906
1525.062,519.0,0.906
1525.782,519.5,0.905
1526.514,520.0,0.905
1527.247,520.5,0.905
1527.972,521.0,0.905
1528.701,521.5,0.904
1529.426,522.0,0.904
1530.151,522.5,0.904
1530.891,523.0,0.904
1531.62,523.5,0.903
1532.348,524.0,0.903
1533.076,524.5,0.903
1533.805,525.0,0.902
1534.54,525.5,0.902
1535.276,526.0,0.902
1536.012,526.5,0.902
1536.738,527.0,0.901
1537.471,527.5,0.901
1538.206,528.0,0.901
1538.934,528.5,0.9
1539.66,529.0,0.9
1540.391,529.5,0.9
1541.124,530.0,0.899
1541.848,530.5,0.899
1542.584,531.0,0.898
1543.323,531.5,0.898
1544.061,532.0,0.898
1544.782,532.5,0.897
1545.507,533.0,0.897
1546.238,533.5,0.897
1546.981,534.0,0.896
1547.712,534.5,0.896
1548.437,535.0,0.896
1549.16,535.5,0.895
1549.896,536.0,0.895
1550.63,536.5,0.894
1551.363,537.0,0.894
1552.095,537.5,0.894
1552.828,538.0,0.893
1553.562,538.5,0.892
1554.292,539.0,0.892
1555.018,539.5,0.892
1555.749,540.0,0.891
1556.482,540.5,0.891
1557.217,541.0,0.89
1557.95,541.5,0.89
1558.682,542.0,0.889
1559.419,542.5,0.889
1560.154,543.0,0.888
1560.871,543.5,0.888
1561.607,544.0,0.887
1562.34,544.5,0.887
1563.067,545.0,0.886
1563.798,545.5,0.886
1564.532,546.0,0.885
1565.27,546.5,0.885
1566.013,547.0,0.884
1566.738,547.5,0.883
1567.465,548.0,0.883
1568.196,548.5,0.883
1568.934,549.0,0.882
1569.668,549.5,0.881
1570.402,550.0,0.881
1571.137,550.5,0.88
1571.872,551.0,0.879
1572.604,551.5,0.878
1573.336,552.0,0.878
1574.069,552.5,0.878
1574.8,553.0,0.877
1575.532,553.5,0.876
1576.268,554.0,0.876
1577.009,554.5,0.875
1577.749,555.0,0.874
1578.48,555.5,0.874
1579.207,556.0,0.873
1579.934,556.5,0.872
1580.666,557.0,0.871
1581.403,557.5,0.871
1582.142,558.0,0.87
1582.875,558.5,0.869
1583.614,559.0,0.868
1584.348,559.5,0.868
1585.077,560.0,0.867
1585.808,560.5,0.866
1586.543,561.0,0.865
1587.279,561.5,0.865
1588.015,562.0,0.864
1588.742,562.5,0.863
1589.481,563.0,0.863
1590.221,563.5,0.862
1590.953,564.0,0.861
1591.688,564.5,0.86
1592.425,565.0,0.86
1593.159,565.5,0.859
1593.884,566.0,0.858
1594.621,566.5,0.857
1595.363,567.0,0.857
1596.104,567.5,0.856
1596.84,568.0,0.855
1597.567,568.5,0.854
1598.3,569.0,0.854
1599.044,569.5,0.853
1599.769,570.0,0.851
1600.506,570.5,0.85
1601.245,571.0,0.85
1601.979,571.5,0.849
1602.721,572.0,0.848
1603.453,572.5,0.848
1604.183,573.0,0.847
1604.92,573.5,0.846
1605.657,574.0,0.845
1606.394,574.5,0.844
1607.132,575.0,0.843
1607.874,575.5,0.842
1608.614,576.0,0.841
1609.353,576.5,0.84
1610.089,577.0,0.839
1610.817,577.5,0.838
1611.549,578.0,0.837
1612.284,578.5,0.836
1613.021,579.0,0.835
1613.76,579.5,0.834
1614.504,580.0,0.833
1615.247,580.5,0.833
1615.984,581.0,0.831
1616.724,581.5,0.83
1617.464,582.0,0.829
1618.202,582.5,0.828
1618.941,583.0,0.827
1619.676,583.5,0.826
1620.414,584.0,0.825
1621.152,584.5,0.824
1621.891,585.0,0.822
1622.627,585.5,0.821
1623.361,586.0,0.82
1624.091,586.5,0.819
1624.828,587.0,0.818
1625.567,587.5,0.817
1626.307,588.0,0.815
1627.044,588.5,0.814
1627.778,589.0,0.813
1628.525,589.5,0.812
1629.273,590.0,0.81
1630.016,590.5,0.809
1630.751,591.0,0.808
1631.491,591.5,0.807
1632.232,592.0,0.806
1632.969,592.5,0.804
1633.709,593.0,0.803
1634.448,593.5,0.802
1635.187,594.0,0.801
1635.922,594.5,0.799
1636.668,595.0,0.798
1637.409,595.5,0.796
1638.146,596.0,0.795
1638.881,596.5,0.793
1639.62,597.0,0.792
1640.357,597.5,0.79
1641.094,598.0,0.789
1641.837,598.5,0.787
1642.579,599.0,0.786
1643.32,599.5,0.784
1644.063,600.0,0.783
1644.811,600.5,0.781
1645.557,601.0,0.78
1646.298,601.5,0.778
1647.036,602.0,0.777
1647.776,602.5,0.775
1648.516,603.0,0.774
1649.256,603.5,0.772
1649.999,604.0,0.77
1650.736,604.5,0.769
1651.478,605.0,0.767
1652.222,605.5,0.765
1652.963,606.0,0.763
1653.714,606.5,0.762
1654.454,607.0,0.76
1655.189,607.5,0.758
1655.934,608.0,0.756
1656.674,608.5,0.755
1657.418,609.0,0.753
1658.164,609.5,0.751
1658.904,610.0,0.749
1659.635,610.5,0.747
1660.379,611.0,0.745
1661.137,611.5,0.743
1661.887,612.0,0.741
1662.62,612.5,0.739
1663.358,613.0,0.737
1664.109,613.5,0.735
1664.869,614.0,0.732
1665.601,614.5,0.731
1666.338,615.0,0.729
1667.087,615.5,0.727
1667.824,616.0,0.725
1668.565,616.5,0.722
1669.308,617.0,0.72
1670.052,617.5,0.718
1670.797,618.0,0.716
1671.536,618.5,0.713
1672.28,619.0,0.711
1673.037,619.5,0.709
1673.773,620.0,0.707
1674.517,620.5,0.704
1675.265,621.0,0.702
1676.013,621.5,0.7
1676.755,622.0,0.698
1677.504,622.5,0.695
1678.254,623.0,0.693
1679.001,623.5,0.69
1679.737,624.0,0.688
1680.483,624.5,0.686
1681.231,625.0,0.683
1681.97,625.5,0.681
1682.717,626.0,0.678
1683.464,626.5,0.676
1684.208,627.0,0.673
1684.947,627.5,0.671
1685.687,628.0,0.668
1686.438,628.5,0.666
1687.192,629.0,0.663
1687.936,629.5,0.661
1688.679,630.0,0.658
1689.431,630.5,0.656
1690.185,631.0,0.653
1690.923,631.5,0.65
1691.67,632.0,0.648
1692.415,632.5,0.645
1693.162,633.0,0.642
1693.92,633.5,0.639
1694.661,634.0,0.637
1695.402,634.5,0.634
1696.147,635.0,0.632
1696.906,635.5,0.629
1697.655,636.0,0.626
1698.401,636.5,0.623
1699.145,637.0,0.621
1699.878,637.5,0.618
1700.63,638.0,0.615
1701.385,638.5,0.612
1702.138,639.0,0.609
1702.879,639.5,0.606
1703.626,640.0,0.604
1704.374,640.5,0.602
1705.122,641.0,0.599
1705.866,641.5,0.596
1706.626,642.0,0.592
1707.381,642.5,0.589
1708.127,643.0,0.586
1708.873,643.5,0.584
1709.621,644.0,0.581
1710.374,644.5,0.578
1711.127,645.0,0.575
1711.863,645.5,0.573
1712.615,646.0,0.57
1713.367,646.5,0.567
1714.117,647.0,0.563
1714.865,647.5,0.56
1715.613,648.0,0.557
1716.362,648.5,0.554
1717.114,649.0,0.551
1717.866,649.5,0.548
1718.616,650.0,0.545
1719.368,650.5,0.542
1720.12,651.0,0.538
1720.861,651.5,0.535
1721.623,652.0,0.532
1722.38,652.5,0.528
1723.131,653.0,0.525
1723.891,653.5,0.522
1724.636,654.0,0.519
1725.381,654.5,0.515
1726.132,655.0,0.512
1726.899,655.5,0.509
1727.64,656.0,0.506
1728.391,656.5,0.502
1729.154,657.0,0.499
1729.915,657.5,0.495
1730.666,658.0,0.492
1731.412,658.5,0.489
1732.161,659.0,0.485
1732.936,659.5,0.481
1733.675,660.0,0.478
1734.422,660.5,0.474
1735.179,661.0,0.471
1735.938,661.5,0.467
1736.686,662.0,0.464
1737.445,662.5,0.46
1738.207,663.0,0.456
1738.954,663.5,0.452
1739.705,664.0,0.448
1740.458,664.5,0.445
1741.211,665.0,0.441
1741.967,665.5,0.437
1742.726,666.0,0.433
1743.482,666.5,0.429
1744.237,667.0,0.425
1744.998,667.5,0.421
1745.747,668.0,0.417
1746.5,668.5,0.413
1747.256,669.0,0.409
1748.012,669.5,0.405
1748.765,670.0,0.401
1749.517,670.5,0.397
1750.267,671.0,0.393
1751.017,671.5,0.389
1751.779,672.0,0.384
1752.544,672.5,0.38
1753.305,673.0,0.376
1754.055,673.5,0.372
1754.797,674.0,0.368
1755.554,674.5,0.364
1756.312,675.0,0.359
1757.064,675.5,0.356
1757.82,676.0,0.351
1758.583,676.5,0.347
1759.34,677.0,0.343
1760.089,677.5,0.339
1760.839,678.0,0.335
1761.593,678.5,0.331
1762.35,679.0,0.327
1763.111,679.5,0.323
1763.875,680.0,0.319
1764.635,680.5,0.315
1765.388,681.0,0.311
1766.136,681.5,0.307
1766.889,682.0,0.304
1767.643,682.5,0.301
1768.393,683.0,0.297
1769.14,683.5,0.293
1769.894,684.0,0.29
1770.643,684.5,0.287
1771.396,685.0,0.284
1772.154,685.5,0.281
1772.907,686.0,0.278
1773.668,686.5,0.275
1774.422,687.0,0.272
1775.173,687.5,0.269
1775.93,688.0,0.267
1776.676,688.5,0.265
1777.427,689.0,0.263
1778.187,689.5,0.26
1778.951,690.0,0.258
1779.701,690.5,0.256
1780.452,691.0,0.254
1781.205,691.5,0.253
1781.956,692.0,0.251
1782.713,692.5,0.249
1783.463,693.0,0.248
1784.211,693.5,0.247
1784.958,694.0,0.245
1785.716,694.5,0.244
1786.474,695.0,0.243
1787.233,695.5,0.242
1787.995,696.0,0.241
1788.751,696.5,0.24
1789.507,697.0,0.239
1790.263,697.5,0.238
1791.018,698.0,0.237
1791.764,698.5,0.237
1792.518,699.0,0.236
1793.274,699.5,0.236
1794.027,700.0,0.235
1794.781,700.5,0.234
1795.537,701.0,0.234
1796.297,701.5,0.234
1797.062,702.0,0.233
1797.818,702.5,0.233
1798.575,703.0,0.232
1799.327,703.5,0.232
1800.076,704.0,0.232
1800.837,704.5,0.231
1801.591,705.0,0.231
1802.349,705.5,0.231
1803.111,706.0,0.23
1803.863,706.5,0.23
1804.619,707.0,0.229
1805.375,707.5,0.229
1806.134,708.0,0.229
1806.906,708.5,0.228
1807.648,709.0,0.228
1808.398,709.5,0.228
1809.156,710.0,0.227
1809.915,710.5,0.227
1810.674,711.0,0.227
1811.429,711.5,0.227
1812.181,712.0,0.226
1812.937,712.5,0.226
1813.699,713.0,0.226
1814.461,713.5,0.226
1815.218,714.0,0.225
1815.966,714.5,0.225
1816.722,715.0,0.224
1817.48,715.5,0.224
1818.235,716.0,0.224
1818.981,716.5,0.224
1819.733,717.0,0.223
1820.498,717.5,0.223
1821.264,718.0,0.223
1822.018,718.5,0.222
1822.766,719.0,0.222
1823.527,719.5,0.222
1824.291,720.0,0.222
1825.054,720.5,0.221
1825.828,721.0,0.221
1826.581,721.5,0.221
1827.329,722.0,0.221
1828.082,722.5,0.22
1828.845,723.0,0.22
1829.606,723.5,0.22
1830.366,724.0,0.22
1831.123,724.5,0.219
1831.87,725.0,0.219
1832.625,725.5,0.219
1833.384,726.0,0.219
1834.144,726.5,0.218
1834.904,727.0,0.218
1835.66,727.5,0.217
1836.417,728.0,0.217
1837.174,728.5,0.217
1837.924,729.0,0.217
1838.694,729.5,0.216
1839.459,730.0,0.216
1840.215,730.5,0.216
1840.961,731.0,0.216
1841.719,731.5,0.215
1842.479,732.0,0.215
1843.239,732.5,0.215
1844.0,733.0,0.215
1844.755,733.5,0.215
1845.515,734.0,0.214
1846.274,734.5,0.214
1847.027,735.0,0.214
1847.79,735.5,0.214
1848.548,736.0,0.213
1849.304,736.5,0.213
1850.059,737.0,0.213
1850.817,737.5,0.213
1851.575,738.0,0.213
1852.331,738.5,0.213
1853.086,739.0,0.212
1853.85,739.5,0.212
1854.613,740.0,0.212
1855.369,740.5,0.212
1856.123,741.0,0.211
1856.895,741.5,0.211
1857.652,742.0,0.211
1858.401,742.5,0.211
1859.154,743.0,0.211
1859.93,743.5,0.21
1860.684,744.0,0.21
1861.439,744.5,0.21
1862.198,745.0,0.21
1862.963,745.5,0.209
1863.722,746.0,0.209
1864.485,746.5,0.209
1865.248,747.0,0.209
1866.006,747.5,0.208
1866.752,748.0,0.208
1867.508,748.5,0.208
1868.267,749.0,0.208
1869.02,749.5,0.207
1869.793,750.0,0.207
1870.552,750.5,0.207
1871.306,751.0,0.207
1872.061,751.5,0.207
1872.822,752.0,0.206
1873.578,752.5,0.206
1874.341,753.0,0.206
1875.111,753.5,0.206
1875.862,754.0,0.205
1876.631,754.5,0.205
1877.39,755.0,0.205
1878.139,755.5,0.205
1878.897,756.0,0.205
1879.658,756.5,0.205
1880.414,757.0,0.205
1881.166,757.5,0.204
1881.921,758.0,0.204
1882.69,758.5,0.204
1883.447,759.0,0.204
1884.2,759.5,0.204
1884.969,760.0,0.203
1885.717,760.5,0.203
1886.473,761.0,0.203
1887.232,761.5,0.203
1887.989,762.0,0.203
1888.745,762.5,0.203
1889.509,763.0,0.202
1890.275,763.5,0.202
1891.037,764.0,0.202
1891.8,764.5,0.202
1892.559,765.0,0.202
1893.316,765.5,0.202
1894.072,766.0,0.202
1894.838,766.5,0.201
1895.587,767.0,0.201
1896.341,767.5,0.201
1897.105,768.0,0.201
1897.865,768.5,0.201
1898.625,769.0,0.201
1899.379,769.5,0.201
1900.13,770.0,0.2
1900.893,770.5,0.2
1901.655,771.0,0.2
1902.414,771.5,0.2
1903.171,772.0,0.2
1903.934,772.5,0.199
1904.692,773.0,0.199
1905.447,773.5,0.199
1906.204,774.0,0.199
1906.971,774.5,0.199
1907.723,775.0,0.199
1908.48,775.5,0.199
1909.235,776.0,0.198
1909.985,776.5,0.198
1910.748,777.0,0.198
1911.508,777.5,0.198
1912.268,778.0,0.198
1913.029,778.5,0.198
1913.783,779.0,0.198
1914.545,779.5,0.197
1915.306,780.0,0.197
1916.06,780.5,0.197
1916.823,781.0,0.197
1917.579,781.5,0.197
1918.335,782.0,0.197
1919.094,782.5,0.197
1919.852,783.0,0.196
1920.618,783.5,0.196
1921.376,784.0,0.196
1922.128,784.5,0.196
1922.888,785.0,0.196
1923.644,785.5,0.196
1924.406,786.0,0.196
1925.17,786.5,0.196
1925.922,787.0,0.195
1926.675,787.5,0.195
1927.431,788.0,0.195
1928.191,788.5,0.195
1928.953,789.0,0.195
1929.717,789.5,0.195
1930.475,790.0,0.195
1931.229,790.5,0.195
1931.98,791.0,0.194
1932.748,791.5,0.194
1933.508,792.0,0.194
1934.267,792.5,0.194
1935.03,793.0,0.194
1935.775,793.5,0.194
1936.527,794.0,0.194
1937.289,794.5,0.194
1938.059,795.0,0.194
1938.82,795.5,0.193
1939.575,796.0,0.193
1940.329,796.5,0.193
1941.084,797.0,0.193
1941.845,797.5,0.193
1942.603,798.0,0.193
1943.361,798.5,0.193
1944.12,799.0,0.193
1944.877,799.5,0.193
1945.641,800.0,0.192
1946.399,800.5,0.192
1947.154,801.0,0.192
1947.916,801.5,0.192
1948.666,802.0,0.192
1949.419,802.5,0.192
1950.178,803.0,0.192
1950.948,803.5,0.192
1951.702,804.0,0.192
1952.458,804.5,0.192
1953.219,805.0,0.191
1953.985,805.5,0.191
1954.741,806.0,0.191
1955.495,806.5,0.191
1956.248,807.0,0.191
1957.005,807.5,0.191
1957.767,808.0,0.191
1958.527,808.5,0.191
1959.286,809.0,0.191
1960.043,809.5,0.191
1960.805,810.0,0.19
1961.563,810.5,0.19
1962.32,811.0,0.19
1963.077,811.5,0.19
1963.831,812.0,0.19
1964.591,812.5,0.19
1965.354,813.0,0.19
1966.117,813.5,0.19
1966.877,814.0,0.19
1967.621,814.5,0.189
1968.373,815.0,0.189
1969.134,815.5,0.189
1969.89,816.0,0.189
1970.652,816.5,0.189
1971.413,817.0,0.189
1972.169,817.5,0.189
1972.918,818.0,0.189
1973.683,818.5,0.189
1974.439,819.0,0.189
1975.192,819.5,0.189
1975.953,820.0,0.188
1976.717,820.5,0.188
1977.48,821.0,0.188
1978.239,821.5,0.188
1978.989,822.0,0.188
1979.742,822.5,0.188
1980.5,823.0,0.188
1981.263,823.5,0.188
1982.033,824.0,0.188
1982.786,824.5,0.187
1983.548,825.0,0.187
1984.309,825.5,0.187
1985.063,826.0,0.187
1985.813,826.5,0.187
1986.574,827.0,0.187
1987.335,827.5,0.187
1988.091,828.0,0.187
1988.861,828.5,0.187
1989.608,829.0,0.187
1990.356,829.5,0.187
1991.111,830.0,0.187
1991.863,830.5,0.186
1992.631,831.0,0.186
1993.392,831.5,0.186
1994.146,832.0,0.186
1994.907,832.5,0.186
1995.658,833.0,0.186
1996.416,833.5,0.186
1997.178,834.0,0.186
1997.934,834.5,0.186
1998.687,835.0,0.186
1999.443,835.5,0.186
2000.202,836.0,0.186
2000.959,836.5,0.186
2001.721,837.0,0.186
2002.48,837.5,0.186
2003.236,838.0,0.185
2003.991,838.5,0.185
2004.75,839.0,0.185
2005.504,839.5,0.185
2006.256,840.0,0.185
2007.011,840.5,0.185
2007.773,841.0,0.185
2008.534,841.5,0.185
2009.294,842.0,0.185
2010.053,842.5,0.185
2010.806,843.0,0.185
2011.565,843.5,0.184
2012.323,844.0,0.184
2013.078,844.5,0.184
2013.83,845.0,0.184
2014.586,845.5,0.184
2015.346,846.0,0.184
2016.108,846.5,0.184
2016.868,847.0,0.184
2017.621,847.5,0.184
2018.376,848.0,0.184
2019.135,848.5,0.183
2019.895,849.0,0.183
2020.651,849.5,0.183
2021.403,850.0,0.183
2022.157,850.5,0.183
2022.935,851.0,0.183
2023.694,851.5,0.183
2024.447,852.0,0.183
2025.198,852.5,0.183
2025.948,853.0,0.183
2026.701,853.5,0.183
2027.458,854.0,0.183
2028.221,854.5,0.183
2029.0,855.0,0.183
2029.755,855.5,0.183
2030.514,856.0,0.183
2031.275,856.5,0.183
2032.033,857.0,0.182
2032.79,857.5,0.182
2033.549,858.0,0.182
2034.307,858.5,0.182
2035.06,859.0,0.182
2035.813,859.5,0.182
2036.568,860.0,0.182
2037.322,860.5,0.182
2038.075,861.0,0.182
2038.845,861.5,0.182
2039.598,862.0,0.182
2040.352,862.5,0.182
2041.11,863.0,0.181
2041.875,863.5,0.181
2042.629,864.0,0.181
2043.379,864.5,0.181
2044.13,865.0,0.181
2044.893,865.5,0.181
2045.646,866.0,0.181
2046.402,866.5,0.181
2047.163,867.0,0.181
2047.922,867.5,0.18
2048.682,868.0,0.18
2049.44,868.5,0.18
2050.195,869.0,0.18
2050.95,869.5,0.18
2051.701,870.0,0.18
2052.453,870.5,0.18
2053.207,871.0,0.18
2053.962,871.5,0.18
2054.719,872.0,0.18
2055.477,872.5,0.18
2056.235,873.0,0.18
2056.986,873.5,0.18
2057.734,874.0,0.18
2058.492,874.5,0.18
2059.255,875.0,0.18
2060.012,875.5,0.18
2060.772,876.0,0.179
2061.528,876.5,0.179
2062.284,877.0,0.179
2063.042,877.5,0.179
2063.8,878.0,0.179
2064.562,878.5,0.179
2065.321,879.0,0.179
2066.073,879.5,0.179
2066.819,880.0,0.179
2067.579,880.5,0.179
2068.336,881.0,0.179
2069.086,881.5,0.179
2069.84,882.0,0.179
2070.592,882.5,0.178
2071.346,883.0,0.178
2072.103,883.5,0.178
2072.859,884.0,0.178
2073.622,884.5,0.178
2074.38,885.0,0.178
2075.132,885.5,0.178
2075.892,886.0,0.178
2076.643,886.5,0.178
2077.394,887.0,0.178
2078.147,887.5,0.178
2078.907,888.0,0.177
2079.671,888.5,0.177
2080.425,889.0,0.177
2081.173,889.5,0.177
2081.928,890.0,0.177
2082.673,890.5,0.177
2083.424,891.0,0.177
2084.181,891.5,0.177
2084.941,892.0,0.177
2085.696,892.5,0.177
2086.447,893.0,0.177
2087.197,893.5,0.177
2087.955,894.0,0.177
2088.706,894.5,0.177
2089.459,895.0,0.177
2090.215,895.5,0.177
2090.977,896.0,0.177
2091.726,896.5,0.176
2092.484,897.0,0.176
2093.241,897.5,0.176
2093.987,898.0,0.176
2094.746,898.5,0.176
2095.499,899.0,0.176
2096.25,899.5,0.176
2097.005,900.0,0.176
2097.759,900.5,0.176
2098.511,901.0,0.176
2099.267,901.5,0.176
2100.029,902.0,0.176
2100.784,902.5,0.176
2101.533,903.0,0.176
2102.283,903.5,0.176
2103.041,904.0,0.176
2103.795,904.5,0.176
2104.542,905.0,0.176
2105.294,905.5,0.176
2106.054,906.0,0.175
2106.81,906.5,0.175
2107.559,907.0,0.175
2108.31,907.5,0.175
2109.065,908.0,0.175
2109.82,908.5,0.175
2110.571,909.0,0.175
2111.322,909.5,0.175
2112.075,910.0,0.175
2112.839,910.5,0.175
2113.585,911.0,0.175
2114.332,911.5,0.175
2115.086,912.0,0.175
2115.839,912.5,0.175
2116.595,913.0,0.175
2117.352,913.5,0.175
2118.107,914.0,0.175
2118.861,914.5,0.174
2119.608,915.0,0.174
2120.361,915.5,0.174
2121.122,916.0,0.174
2121.872,916.5,0.174
2122.626,917.0,0.174
2123.375,917.5,0.174
2124.123,918.0,0.174
2124.888,918.5,0.174
2125.639,919.0,0.174
2126.392,919.5,0.174
2127.148,920.0,0.174
2127.898,920.5,0.174
2128.653,921.0,0.174
2129.405,921.5,0.174
2130.157,922.0,0.174
2130.916,922.5,0.173
2131.663,923.0,0.173
2132.418,923.5,0.173
2133.177,924.0,0.173
2133.925,924.5,0.173
2134.679,925.0,0.173
2135.433,925.5,0.173
2136.185,926.0,0.173
2136.929,926.5,0.173
2137.687,927.0,0.173
2138.441,927.5,0.173
2139.193,928.0,0.173
2139.949,928.5,0.173
2140.694,929.0,0.173
2141.449,929.5,0.173
2142.205,930.0,0.173
2142.949,930.5,0.173
2143.711,931.0,0.173
2144.463,931.5,0.173
2145.21,932.0,0.172
2145.958,932.5,0.172
2146.717,933.0,0.172
2147.476,933.5,0.172
2148.23,934.0,0.172
2148.978,934.5,0.172
2149.733,935.0,0.172
2150.484,935.5,0.172
2151.234,936.0,0.172
2151.988,936.5,0.172
2152.749,937.0,0.172
2153.499,937.5,0.172
2154.245,938.0,0.172
2154.997,938.5,0.172
2155.757,939.0,0.172
2156.505,939.5,0.172
2157.252,940.0,0.172
2158.007,940.5,0.172
2158.757,941.0,0.172
2159.512,941.5,0.171
2160.267,942.0,0.171
2161.017,942.5,0.171
2161.772,943.0,0.171
2162.52,943.5,0.171
2163.268,944.0,0.171
2164.022,944.5,0.171
2164.772,945.0,0.171
2165.527,945.5,0.171
2166.285,946.0,0.171
2167.042,946.5,0.171
2167.788,947.0,0.171
2168.537,947.5,0.171
2169.287,948.0,0.171
2170.039,948.5,0.171
2170.789,949.0,0.17
2171.541,949.5,0.17
2172.293,950.0,0.17
2173.041,950.5,0.17
2173.803,951.0,0.17
2174.552,951.5,0.17
2175.297,952.0,0.17
2176.045,952.5,0.17
2176.799,953.0,0.17
2177.556,953.5,0.17
2178.308,954.0,0.17
2179.051,954.5,0.17
2179.808,955.0,0.17
2180.559,955.5,0.17
2181.313,956.0,0.17
2182.071,956.5,0.17
2182.83,957.0,0.17
2183.582,957.5,0.17
2184.332,958.0,0.17
2185.083,958.5,0.17
2185.836,959.0,0.17
2186.587,959.5,0.17
2187.339,960.0,0.17
2188.092,960.5,0.17
2188.845,961.0,0.17
2189.592,961.5,0.17
2190.336,962.0,0.17
2191.082,962.5,0.169
2191.838,963.0,0.169
2192.585,963.5,0.169
2193.337,964.0,0.169
2194.098,964.5,0.169
2194.842,965.0,0.169
2195.583,965.5,0.169
2196.329,966.0,0.169
2197.084,966.5,0.169
2197.847,967.0,0.169
2198.602,967.5,0.169
2199.352,968.0,0.169
2200.1,968.5,0.169
2200.846,969.0,0.169
2201.598,969.5,0.169
2202.35,970.0,0.169
2203.103,970.5,0.169
2203.857,971.0,0.169
2204.613,971.5,0.169
2205.361,972.0,0.169
2206.102,972.5,0.169
2206.853,973.0,0.168
2207.605,973.5,0.168
2208.355,974.0,0.168
2209.106,974.5,0.168
2209.862,975.0,0.168
2210.613,975.5,0.168
2211.361,976.0,0.168
2212.109,976.5,0.168
2212.863,977.0,0.168
2213.611,977.5,0.168
2214.355,978.0,0.168
2215.096,978.5,0.168
2215.847,979.0,0.168
2216.604,979.5,0.168
2217.36,980.0,0.168
2218.113,980.5,0.168
2218.866,981.0,0.168
2219.612,981.5,0.168
2220.362,982.0,0.168
2221.118,982.5,0.168
2221.872,983.0,0.168
2222.613,983.5,0.168
2223.359,984.0,0.168
2224.114,984.5,0.167
2224.871,985.0,0.167
2225.616,985.5,0.167
2226.361,986.0,0.167
2227.109,986.5,0.167
2227.858,987.0,0.167
2228.612,987.5,0.167
2229.366,988.0,0.167
2230.119,988.5,0.167
2230.871,989.0,0.167
2231.624,989.5,0.167
2232.375,990.0,0.167
2233.122,990.5,0.167
2233.867,991.0,0.167
2234.619,991.5,0.167
2235.376,992.0,0.167
2236.135,992.5,0.167
2236.882,993.0,0.167
2237.633,993.5,0.167
2238.381,994.0,0.167
2239.125,994.5,0.167
2239.872,995.0,0.167
2240.621,995.5,0.166
2241.371,996.0,0.166
2242.121,996.5,0.166
2242.868,997.0,0.166
2243.627,997.5,0.166
2244.381,998.0,0.166
2245.128,998.5,0.166
2245.88,999.0,0.166
2246.623,999.5,0.166
2247.376,1000.0,0.166
2248.136,1000.5,0.166
2248.886,1001.0,0.166
2249.636,1001.5,0.166
2250.389,1002.0,0.166
2251.143,1002.5,0.166
2251.887,1003.0,0.166
2252.639,1003.5,0.166
2253.392,1004.0,0.166
2254.144,1004.5,0.166
2254.887,1005.0,0.166
2255.639,1005.5,0.166
2256.387,1006.0,0.166
2257.133,1006.5,0.166
2257.89,1007.0,0.166
2258.632,1007.5,0.165
2259.38,1008.0,0.165
2260.136,1008.5,0.165
2260.893,1009.0,0.165
2261.636,1009.5,0.165
2262.379,1010.0,0.165
2263.124,1010.5,0.165
2263.87,1011.0,0.165
2264.625,1011.5,0.165
2265.376,1012.0,0.165
2266.123,1012.5,0.165
2266.871,1013.0,0.165
2267.618,1013.5,0.165
2268.363,1014.0,0.165
2269.11,1014.5,0.165
2269.871,1015.0,0.165
2270.62,1015.5,0.165
2271.369,1016.0,0.165
2272.118,1016.5,0.165
2272.868,1017.0,0.165
2273.616,1017.5,0.165
2274.365,1018.0,0.165
2275.114,1018.5,0.165
2275.857,1019.0,0.164
2276.609,1019.5,0.164
2277.362,1020.0,0.164
2278.111,1020.5,0.164
2278.853,1021.0,0.164
2279.608,1021.5,0.164
2280.359,1022.0,0.164
2281.101,1022.5,0.164
2281.853,1023.0,0.164
2282.604,1023.5,0.164
2283.352,1024.0,0.164
2284.097,1024.5,0.164
2284.845,1025.0,0.164
2285.586,1025.5,0.164
2286.332,1026.0,0.164
2287.085,1026.5,0.164
2287.835,1027.0,0.164
2288.585,1027.5,0.164
2289.334,1028.0,0.164
2290.085,1028.5,0.164
2290.841,1029.0,0.164
2291.591,1029.5,0.164
2292.335,1030.0,0.164
2293.073,1030.5,0.164
2293.819,1031.0,0.164
2294.578,1031.5,0.164
2295.334,1032.0,0.164
2296.084,1032.5,0.164
2296.834,1033.0,0.163
2297.578,1033.5,0.163
2298.326,1034.0,0.163
2299.081,1034.5,0.163
2299.833,1035.0,0.163
2300.579,1035.5,0.163
2301.324,1036.0,0.163
2302.073,1036.5,0.163
2302.83,1037.0,0.163
2303.581,1037.5,0.163
2304.326,1038.0,0.163
2305.068,1038.5,0.163
2305.822,1039.0,0.163
2306.575,1039.5,0.163
2307.324,1040.0,0.163
2308.068,1040.5,0.163
2308.826,1041.0,0.163
2309.57,1041.5,0.163
2310.316,1042.0,0.163
2311.067,1042.5,0.163
2311.812,1043.0,0.163
2312.559,1043.5,0.163
2313.309,1044.0,0.163
2314.063,1044.5,0.163
2314.808,1045.0,0.163
2315.555,1045.5,0.163
2316.304,1046.0,0.163
2317.052,1046.5,0.163
2317.793,1047.0,0.163
2318.54,1047.5,0.163
2319.291,1048.0,0.163
2320.046,1048.5,0.162
2320.805,1049.0,0.162
2321.552,1049.5,0.162
2322.3,1050.0,0.162
2323.057,1050.5,0.162
2323.803,1051.0,0.162
2324.543,1051.5,0.162
2325.288,1052.0,0.162
2326.046,1052.5,0.162
2326.807,1053.0,0.162
2327.558,1053.5,0.162
2328.304,1054.0,0.162
2329.051,1054.5,0.162
2329.796,1055.0,0.162
2330.543,1055.5,0.162
2331.291,1056.0,0.162
2332.042,1056.5,0.162
2332.798,1057.0,0.162
2333.55,1057.5,0.162
2334.263,1058.0,0.162
2334.919,1058.5,0.162
2336.807,1059.0,0.162
2338.114,1059.5,0.162
2339.227,1060.0,0.162
2340.363,1060.5,0.162
2341.559,1061.0,0.161
2342.813,1061.5,0.161
2344.134,1062.0,0.161
2345.543,1062.5,0.161
2347.018,1063.0,0.161
2348.569,1063.5,0.161
2350.237,1064.0,0.161
2352.022,1064.5,0.161
2353.937,1065.0,0.161
2355.0,1065.25,0.161
2365.0,1067.242,0.161
2375.0,1068.613,0.16
2385.0,1069.562,0.16
2395.0,1070.233,0.16
2405.0,1070.715,0.16
2415.0,1071.08,0.159
2425.0,1071.355,0.159
2435.0,1071.562,0.159
2445.0,1071.728,0.159
2455.0,1071.855,0.159
2465.0,1071.971,0.159
2475.0,1072.052,0.159
2485.0,1072.135,0.158
2495.0,1072.207,0.158
2505.0,1072.257,0.158
2515.0,1072.32,0.158
2525.0,1072.363,0.158
2535.0,1072.408,0.158
2545.0,1072.433,0.158
2555.0,1072.477,0.158
2565.0,1072.506,0.158
2575.0,1072.53,0.157
2585.0,1072.557,0.157
2595.0,1072.585,0.157
2605.0,1072.588,0.157
2615.0,1072.608,0.157
2625.0,1072.635,0.157
2635.0,1072.647,0.157
2645.0,1072.664,0.157
2655.0,1072.671,0.157
