Time (s),Temperature (K),Mass (mg)
0.0,305.008,1.98
2.0,304.995,1.979
6.0,304.968,1.978
10.0,304.96,1.977
15.0,304.924,1.976
19.0,304.922,1.975
23.0,304.885,1.974
28.0,304.851,1.973
32.0,304.84,1.972
37.0,304.83,1.971
42.0,304.814,1.97
48.0,304.792,1.969
53.0,304.792,1.968
58.0,304.777,1.967
64.0,304.747,1.966
70.0,304.761,1.965
77.0,304.734,1.964
83.0,304.72,1.963
90.0,304.704,1.962
97.0,304.695,1.961
104.0,304.688,1.96
113.0,304.67,1.959
121.0,304.648,1.958
129.0,304.638,1.957
138.0,304.625,1.956
148.0,304.625,1.955
158.0,304.606,1.954
168.0,304.594,1.953
182.0,304.569,1.952
193.0,304.56,1.951
205.0,304.555,1.95
220.0,304.539,1.949
235.0,304.536,1.948
252.0,304.523,1.947
267.0,304.519,1.946
283.0,304.493,1.945
303.0,304.491,1.944
323.0,304.472,1.943
345.0,304.491,1.942
370.0,304.457,1.941
400.0,304.468,1.94
426.0,304.453,1.939
459.0,304.438,1.938
505.0,304.432,1.937
552.0,304.45,1.936
618.0,304.438,1.935
692.0,304.438,1.934
793.0,304.438,1.933
894.0,304.465,1.932
900.0,304.45,1.933
903.0,304.432,1.932
1047.0,304.453,1.931
1200.0,304.466,1.93
1204.148,305.0,1.929
1205.37,305.5,1.929
1206.332,306.0,1.929
1207.167,306.5,1.928
1207.977,307.0,1.928
1208.795,307.5,1.928
1209.587,308.0,1.928
1210.339,308.5,1.928
1211.052,309.0,1.929
1211.716,309.5,1.93
1212.38,310.0,1.93
1213.042,310.5,1.93
1213.676,311.0,1.931
1214.299,311.5,1.931
1214.911,312.0,1.931
1215.532,312.5,1.932
1216.15,313.0,1.932
1216.757,313.5,1.932
1217.351,314.0,1.932
1217.937,314.5,1.933
1218.533,315.0,1.933
1219.133,315.5,1.933
1219.739,316.0,1.933
1220.332,316.5,1.933
1220.914,317.0,1.933
1221.506,317.5,1.933
1222.097,318.0,1.933
1222.677,318.5,1.932
1223.261,319.0,1.932
1223.85,319.5,1.932
1224.449,320.0,1.932
1225.049,320.5,1.932
1225.637,321.0,1.932
1226.223,321.5,1.932
1226.806,322.0,1.932
1227.399,322.5,1.932
1227.995,323.0,1.931
1228.577,323.5,1.931
1229.16,324.0,1.931
1229.746,324.5,1.931
1230.333,325.0,1.931
1230.918,325.5,1.93
1231.512,326.0,1.93
1232.106,326.5,1.93
1232.693,327.0,1.93
1233.283,327.5,1.93
1233.875,328.0,1.929
1234.464,328.5,1.929
1235.053,329.0,1.929
1235.652,329.5,1.929
1236.249,330.0,1.929
1236.84,330.5,1.928
1237.428,331.0,1.928
1238.016,331.5,1.928
1238.614,332.0,1.928
1239.207,332.5,1.928
1239.788,333.0,1.928
1240.382,333.5,1.928
1240.983,334.0,1.927
1241.579,334.5,1.927
1242.176,335.0,1.927
1242.775,335.5,1.927
1243.369,336.0,1.927
1243.96,336.5,1.927
1244.552,337.0,1.926
1245.144,337.5,1.926
1245.733,338.0,1.926
1246.326,338.5,1.926
1246.922,339.0,1.926
1247.516,339.5,1.925
1248.111,340.0,1.925
1248.715,340.5,1.925
1249.317,341.0,1.925
1249.916,341.5,1.925
1250.509,342.0,1.924
1251.103,342.5,1.924
1251.702,343.0,1.924
1252.302,343.5,1.924
1252.905,344.0,1.924
1253.501,344.5,1.923
1254.097,345.0,1.923
1254.692,345.5,1.923
1255.286,346.0,1.923
1255.878,346.5,1.923
1256.472,347.0,1.923
1257.067,347.5,1.922
1257.666,348.0,1.922
1258.265,348.5,1.922
1258.863,349.0,1.922
1259.468,349.5,1.922
1260.072,350.0,1.921
1260.665,350.5,1.921
1261.264,351.0,1.921
1261.868,351.5,1.92
1262.465,352.0,1.92
1263.06,352.5,1.92
1263.659,353.0,1.92
1264.261,353.5,1.92
1264.864,354.0,1.919
1265.459,354.5,1.919
1266.053,355.0,1.919
1266.664,355.5,1.918
1267.263,356.0,1.918
1267.847,356.5,1.918
1268.447,357.0,1.918
1269.052,357.5,1.918
1269.645,358.0,1.917
1270.24,358.5,1.917
1270.841,359.0,1.917
1271.438,359.5,1.917
1272.033,360.0,1.916
1272.639,360.5,1.916
1273.24,361.0,1.916
1273.835,361.5,1.915
1274.434,362.0,1.915
1275.037,362.5,1.915
1275.646,363.0,1.915
1276.246,363.5,1.915
1276.836,364.0,1.914
1277.438,364.5,1.914
1278.043,365.0,1.914
1278.64,365.5,1.914
1279.235,366.0,1.914
1279.827,366.5,1.913
1280.43,367.0,1.913
1281.035,367.5,1.913
1281.622,368.0,1.913
1282.213,368.5,1.913
1282.813,369.0,1.912
1283.414,369.5,1.912
1284.017,370.0,1.912
1284.619,370.5,1.912
1285.221,371.0,1.912
1285.82,371.5,1.911
1286.418,372.0,1.911
1287.015,372.5,1.911
1287.609,373.0,1.911
1288.207,373.5,1.911
1288.816,374.0,1.91
1289.423,374.5,1.91
1290.027,375.0,1.91
1290.614,375.5,1.91
1291.205,376.0,1.91
1291.804,376.5,1.91
1292.399,377.0,1.91
1292.993,377.5,1.91
1293.594,378.0,1.909
1294.195,378.5,1.909
1294.798,379.0,1.909
1295.386,379.5,1.909
1295.969,380.0,1.909
1296.575,380.5,1.909
1297.181,381.0,1.909
1297.782,381.5,1.909
1298.382,382.0,1.909
1298.98,382.5,1.908
1299.572,383.0,1.908
1300.165,383.5,1.908
1300.761,384.0,1.908
1301.362,384.5,1.908
1301.965,385.0,1.908
1302.555,385.5,1.908
1303.145,386.0,1.908
1303.736,386.5,1.908
1304.335,387.0,1.908
1304.94,387.5,1.908
1305.535,388.0,1.907
1306.131,388.5,1.907
1306.732,389.0,1.907
1307.333,389.5,1.907
1307.934,390.0,1.907
1308.529,390.5,1.907
1309.124,391.0,1.907
1309.726,391.5,1.907
1310.325,392.0,1.907
1310.923,392.5,1.907
1311.512,393.0,1.907
1312.102,393.5,1.907
1312.707,394.0,1.907
1313.304,394.5,1.907
1313.892,395.0,1.907
1314.483,395.5,1.907
1315.077,396.0,1.907
1315.677,396.5,1.907
1316.273,397.0,1.907
1316.863,397.5,1.907
1317.458,398.0,1.907
1318.053,398.5,1.907
1318.646,399.0,1.907
1319.24,399.5,1.907
1319.839,400.0,1.907
1320.437,400.5,1.907
1321.035,401.0,1.907
1321.635,401.5,1.907
1322.231,402.0,1.907
1322.821,402.5,1.907
1323.412,403.0,1.907
1324.005,403.5,1.907
1324.598,404.0,1.907
1325.193,404.5,1.907
1325.792,405.0,1.907
1326.384,405.5,1.907
1326.974,406.0,1.906
1327.568,406.5,1.906
1328.163,407.0,1.906
1328.761,407.5,1.906
1329.36,408.0,1.906
1329.959,408.5,1.906
1330.546,409.0,1.906
1331.136,409.5,1.906
1331.738,410.0,1.906
1332.328,410.5,1.906
1332.909,411.0,1.906
1333.502,411.5,1.906
1334.099,412.0,1.906
1334.702,412.5,1.906
1335.299,413.0,1.906
1335.889,413.5,1.906
1336.479,414.0,1.906
1337.069,414.5,1.906
1337.667,415.0,1.906
1338.262,415.5,1.906
1338.853,416.0,1.906
1339.443,416.5,1.906
1340.032,417.0,1.906
1340.632,417.5,1.906
1341.229,418.0,1.906
1341.823,418.5,1.906
1342.411,419.0,1.906
1342.998,419.5,1.906
1343.585,420.0,1.906
1344.177,420.5,1.906
1344.783,421.0,1.906
1345.379,421.5,1.906
1345.969,422.0,1.906
1346.559,422.5,1.906
1347.148,423.0,1.906
1347.734,423.5,1.906
1348.32,424.0,1.906
1348.905,424.5,1.906
1349.499,425.0,1.906
1350.095,425.5,1.906
1350.69,426.0,1.906
1351.277,426.5,1.906
1351.854,427.0,1.906
1352.452,427.5,1.906
1353.055,428.0,1.906
1353.638,428.5,1.906
1354.226,429.0,1.906
1354.822,429.5,1.905
1355.413,430.0,1.905
1356.001,430.5,1.905
1356.588,431.0,1.905
1357.176,431.5,1.905
1357.766,432.0,1.905
1358.36,432.5,1.905
1358.955,433.0,1.905
1359.542,433.5,1.905
1360.129,434.0,1.905
1360.718,434.5,1.905
1361.307,435.0,1.905
1361.896,435.5,1.905
1362.483,436.0,1.905
1363.071,436.5,1.905
1363.67,437.0,1.905
1364.26,437.5,1.905
1364.838,438.0,1.905
1365.426,438.5,1.905
1366.016,439.0,1.905
1366.605,439.5,1.905
1367.194,440.0,1.905
1367.783,440.5,1.904
1368.371,441.0,1.904
1368.959,441.5,1.904
1369.548,442.0,1.904
1370.14,442.5,1.904
1370.736,443.0,1.904
1371.324,443.5,1.904
1371.905,444.0,1.904
1372.496,444.5,1.904
1373.089,445.0,1.904
1373.674,445.5,1.904
1374.261,446.0,1.904
1374.85,446.5,1.904
1375.441,447.0,1.904
1376.031,447.5,1.904
1376.611,448.0,1.903
1377.193,448.5,1.903
1377.78,449.0,1.903
1378.368,449.5,1.903
1378.956,450.0,1.903
1379.537,450.5,1.903
1380.118,451.0,1.903
1380.709,451.5,1.903
1381.298,452.0,1.903
1381.885,452.5,1.903
1382.474,453.0,1.903
1383.063,453.5,1.903
1383.644,454.0,1.903
1384.229,454.5,1.903
1384.817,455.0,1.902
1385.405,455.5,1.902
1385.993,456.0,1.902
1386.576,456.5,1.902
1387.16,457.0,1.902
1387.744,457.5,1.902
1388.328,458.0,1.902
1388.912,458.5,1.902
1389.496,459.0,1.902
1390.081,459.5,1.901
1390.669,460.0,1.901
1391.255,460.5,1.901
1391.837,461.0,1.901
1392.421,461.5,1.901
1393.006,462.0,1.901
1393.591,462.5,1.9
1394.174,463.0,1.9
1394.753,463.5,1.9
1395.339,464.0,1.9
1395.929,464.5,1.9
1396.512,465.0,1.9
1397.093,465.5,1.9
1397.676,466.0,1.899
1398.263,466.5,1.899
1398.855,467.0,1.899
1399.433,467.5,1.899
1400.006,468.0,1.899
1400.589,468.5,1.898
1401.173,469.0,1.898
1401.756,469.5,1.898
1402.342,470.0,1.898
1402.931,470.5,1.898
1403.514,471.0,1.897
1404.097,471.5,1.897
1404.679,472.0,1.897
1405.26,472.5,1.897
1405.842,473.0,1.896
1406.426,473.5,1.896
1407.011,474.0,1.896
1407.599,474.5,1.896
1408.184,475.0,1.896
1408.762,475.5,1.895
1409.344,476.0,1.895
1409.93,476.5,1.895
1410.509,477.0,1.894
1411.09,477.5,1.894
1411.681,478.0,1.894
1412.264,478.5,1.894
1412.837,479.0,1.893
1413.416,479.5,1.893
1413.998,480.0,1.892
1414.585,480.5,1.892
1415.172,481.0,1.892
1415.756,481.5,1.891
1416.334,482.0,1.891
1416.907,482.5,1.891
1417.496,483.0,1.891
1418.087,483.5,1.89
1418.672,484.0,1.89
1419.255,484.5,1.89
1419.834,485.0,1.889
1420.411,485.5,1.889
1420.987,486.0,1.888
1421.564,486.5,1.888
1422.144,487.0,1.888
1422.732,487.5,1.887
1423.32,488.0,1.887
1423.907,488.5,1.886
1424.487,489.0,1.886
1425.065,489.5,1.885
1425.645,490.0,1.885
1426.228,490.5,1.885
1426.815,491.0,1.884
1427.394,491.5,1.884
1427.969,492.0,1.883
1428.56,492.5,1.883
1429.148,493.0,1.883
1429.723,493.5,1.882
1430.3,494.0,1.882
1430.878,494.5,1.881
1431.46,495.0,1.881
1432.042,495.5,1.88
1432.624,496.0,1.879
1433.205,496.5,1.879
1433.783,497.0,1.879
1434.363,497.5,1.879
1434.945,498.0,1.878
1435.526,498.5,1.877
1436.107,499.0,1.877
1436.698,499.5,1.876
1437.281,500.0,1.876
1437.857,500.5,1.875
1438.437,501.0,1.875
1439.019,501.5,1.874
1439.601,502.0,1.874
1440.183,502.5,1.874
1440.762,503.0,1.873
1441.341,503.5,1.873
1441.922,504.0,1.872
1442.504,504.5,1.871
1443.086,505.0,1.871
1443.664,505.5,1.87
1444.245,506.0,1.87
1444.83,506.5,1.869
1445.411,507.0,1.869
1445.991,507.5,1.868
1446.57,508.0,1.867
1447.149,508.5,1.867
1447.727,509.0,1.867
1448.31,509.5,1.867
1448.897,510.0,1.866
1449.475,510.5,1.866
1450.051,511.0,1.865
1450.632,511.5,1.864
1451.214,512.0,1.864
1451.797,512.5,1.863
1452.384,513.0,1.863
1452.972,513.5,1.862
1453.542,514.0,1.861
1454.114,514.5,1.861
1454.699,515.0,1.86
1455.28,515.5,1.86
1455.86,516.0,1.859
1456.45,516.5,1.859
1457.042,517.0,1.858
1457.618,517.5,1.857
1458.197,518.0,1.857
1458.782,518.5,1.856
1459.358,519.0,1.856
1459.929,519.5,1.855
1460.51,520.0,1.854
1461.093,520.5,1.854
1461.685,521.0,1.853
1462.268,521.5,1.853
1462.84,522.0,1.852
1463.419,522.5,1.852
1464.0,523.0,1.851
1464.587,523.5,1.85
1465.172,524.0,1.849
1465.752,524.5,1.848
1466.332,525.0,1.848
1466.912,525.5,1.847
1467.498,526.0,1.847
1468.083,526.5,1.846
1468.654,527.0,1.845
1469.231,527.5,1.844
1469.817,528.0,1.843
1470.403,528.5,1.843
1470.988,529.0,1.842
1471.569,529.5,1.841
1472.15,530.0,1.841
1472.73,530.5,1.84
1473.31,531.0,1.839
1473.89,531.5,1.838
1474.469,532.0,1.837
1475.048,532.5,1.836
1475.628,533.0,1.835
1476.211,533.5,1.835
1476.796,534.0,1.833
1477.38,534.5,1.833
1477.962,535.0,1.832
1478.547,535.5,1.831
1479.132,536.0,1.83
1479.715,536.5,1.829
1480.296,537.0,1.828
1480.875,537.5,1.827
1481.456,538.0,1.826
1482.038,538.5,1.825
1482.619,539.0,1.824
1483.205,539.5,1.824
1483.799,540.0,1.822
1484.379,540.5,1.821
1484.952,541.0,1.82
1485.529,541.5,1.819
1486.109,542.0,1.818
1486.693,542.5,1.817
1487.278,543.0,1.816
1487.865,543.5,1.815
1488.446,544.0,1.814
1489.026,544.5,1.813
1489.613,545.0,1.812
1490.198,545.5,1.811
1490.78,546.0,1.809
1491.365,546.5,1.808
1491.953,547.0,1.807
1492.53,547.5,1.806
1493.107,548.0,1.805
1493.692,548.5,1.803
1494.273,549.0,1.801
1494.851,549.5,1.8
1495.434,550.0,1.799
1496.018,550.5,1.798
1496.596,551.0,1.797
1497.176,551.5,1.795
1497.762,552.0,1.794
1498.346,552.5,1.792
1498.929,553.0,1.791
1499.508,553.5,1.79
1500.088,554.0,1.789
1500.679,554.5,1.787
1501.267,555.0,1.785
1501.85,555.5,1.784
1502.43,556.0,1.783
1503.01,556.5,1.781
1503.59,557.0,1.78
1504.17,557.5,1.778
1504.751,558.0,1.777
1505.335,558.5,1.775
1505.919,559.0,1.774
1506.509,559.5,1.772
1507.098,560.0,1.771
1507.681,560.5,1.769
1508.261,561.0,1.767
1508.837,561.5,1.766
1509.418,562.0,1.765
1510.001,562.5,1.763
1510.591,563.0,1.761
1511.181,563.5,1.759
1511.774,564.0,1.758
1512.356,564.5,1.756
1512.933,565.0,1.754
1513.513,565.5,1.752
1514.094,566.0,1.751
1514.679,566.5,1.75
1515.266,567.0,1.748
1515.854,567.5,1.746
1516.437,568.0,1.745
1517.018,568.5,1.743
1517.601,569.0,1.741
1518.184,569.5,1.739
1518.765,570.0,1.737
1519.35,570.5,1.735
1519.938,571.0,1.733
1520.52,571.5,1.731
1521.103,572.0,1.73
1521.688,572.5,1.728
1522.276,573.0,1.726
1522.87,573.5,1.724
1523.456,574.0,1.723
1524.039,574.5,1.721
1524.62,575.0,1.719
1525.207,575.5,1.716
1525.805,576.0,1.715
1526.39,576.5,1.713
1526.969,577.0,1.711
1527.553,577.5,1.709
1528.136,578.0,1.707
1528.718,578.5,1.705
1529.306,579.0,1.703
1529.9,579.5,1.7
1530.482,580.0,1.699
1531.062,580.5,1.697
1531.652,581.0,1.694
1532.238,581.5,1.692
1532.82,582.0,1.69
1533.408,582.5,1.688
1534.0,583.0,1.686
1534.582,583.5,1.684
1535.164,584.0,1.681
1535.745,584.5,1.679
1536.332,585.0,1.677
1536.923,585.5,1.675
1537.509,586.0,1.673
1538.093,586.5,1.671
1538.678,587.0,1.668
1539.266,587.5,1.666
1539.86,588.0,1.664
1540.45,588.5,1.661
1541.039,589.0,1.659
1541.625,589.5,1.657
1542.21,590.0,1.654
1542.793,590.5,1.652
1543.382,591.0,1.649
1543.974,591.5,1.647
1544.558,592.0,1.645
1545.142,592.5,1.642
1545.727,593.0,1.639
1546.317,593.5,1.637
1546.912,594.0,1.634
1547.496,594.5,1.632
1548.079,595.0,1.63
1548.67,595.5,1.627
1549.26,596.0,1.624
1549.849,596.5,1.622
1550.436,597.0,1.619
1551.022,597.5,1.616
1551.619,598.0,1.614
1552.212,598.5,1.611
1552.797,599.0,1.608
1553.384,599.5,1.605
1553.972,600.0,1.602
1554.559,600.5,1.6
1555.146,601.0,1.597
1555.735,601.5,1.594
1556.324,602.0,1.591
1556.914,602.5,1.588
1557.502,603.0,1.585
1558.09,603.5,1.582
1558.68,604.0,1.579
1559.268,604.5,1.576
1559.854,605.0,1.573
1560.442,605.5,1.57
1561.032,606.0,1.567
1561.627,606.5,1.563
1562.221,607.0,1.56
1562.811,607.5,1.557
1563.402,608.0,1.554
1563.994,608.5,1.55
1564.583,609.0,1.547
1565.171,609.5,1.544
1565.757,610.0,1.54
1566.35,610.5,1.537
1566.947,611.0,1.533
1567.532,611.5,1.53
1568.119,612.0,1.526
1568.718,612.5,1.523
1569.314,613.0,1.519
1569.907,613.5,1.516
1570.495,614.0,1.512
1571.081,614.5,1.509
1571.665,615.0,1.505
1572.257,615.5,1.501
1572.856,616.0,1.497
1573.448,616.5,1.493
1574.037,617.0,1.49
1574.629,617.5,1.486
1575.222,618.0,1.482
1575.817,618.5,1.478
1576.408,619.0,1.474
1576.998,619.5,1.47
1577.589,620.0,1.466
1578.182,620.5,1.462
1578.781,621.0,1.458
1579.375,621.5,1.453
1579.966,622.0,1.449
1580.552,622.5,1.445
1581.139,623.0,1.441
1581.734,623.5,1.437
1582.325,624.0,1.432
1582.914,624.5,1.428
1583.511,625.0,1.423
1584.108,625.5,1.419
1584.699,626.0,1.414
1585.293,626.5,1.41
1585.889,627.0,1.406
1586.488,627.5,1.401
1587.087,628.0,1.396
1587.683,628.5,1.392
1588.276,629.0,1.387
1588.865,629.5,1.382
1589.454,630.0,1.377
1590.044,630.5,1.373
1590.642,631.0,1.368
1591.24,631.5,1.363
1591.836,632.0,1.358
1592.431,632.5,1.354
1593.026,633.0,1.349
1593.621,633.5,1.343
1594.214,634.0,1.338
1594.806,634.5,1.334
1595.4,635.0,1.329
1595.995,635.5,1.324
1596.59,636.0,1.319
1597.185,636.5,1.313
1597.78,637.0,1.308
1598.373,637.5,1.303
1598.964,638.0,1.298
1599.561,638.5,1.293
1600.158,639.0,1.288
1600.757,639.5,1.282
1601.358,640.0,1.277
1601.961,640.5,1.271
1602.556,641.0,1.266
1603.152,641.5,1.261
1603.752,642.0,1.255
1604.348,642.5,1.25
1604.942,643.0,1.245
1605.537,643.5,1.239
1606.132,644.0,1.234
1606.729,644.5,1.228
1607.327,645.0,1.223
1607.925,645.5,1.217
1608.521,646.0,1.211
1609.119,646.5,1.206
1609.72,647.0,1.201
1610.314,647.5,1.195
1610.901,648.0,1.189
1611.505,648.5,1.183
1612.11,649.0,1.177
1612.706,649.5,1.171
1613.307,650.0,1.165
1613.914,650.5,1.16
1614.51,651.0,1.154
1615.103,651.5,1.148
1615.695,652.0,1.142
1616.289,652.5,1.136
1616.888,653.0,1.13
1617.491,653.5,1.124
1618.095,654.0,1.118
1618.693,654.5,1.111
1619.292,655.0,1.105
1619.89,655.5,1.099
1620.488,656.0,1.093
1621.088,656.5,1.086
1621.696,657.0,1.08
1622.3,657.5,1.074
1622.9,658.0,1.067
1623.493,658.5,1.061
1624.087,659.0,1.054
1624.691,659.5,1.047
1625.293,660.0,1.041
1625.893,660.5,1.034
1626.492,661.0,1.028
1627.091,661.5,1.021
1627.701,662.0,1.014
1628.309,662.5,1.007
1628.914,663.0,1.0
1629.513,663.5,0.993
1630.112,664.0,0.986
1630.715,664.5,0.978
1631.315,665.0,0.971
1631.911,665.5,0.964
1632.521,666.0,0.957
1633.132,666.5,0.949
1633.731,667.0,0.942
1634.332,667.5,0.935
1634.936,668.0,0.927
1635.541,668.5,0.92
1636.143,669.0,0.912
1636.74,669.5,0.904
1637.336,670.0,0.897
1637.932,670.5,0.889
1638.536,671.0,0.881
1639.141,671.5,0.873
1639.751,672.0,0.864
1640.356,672.5,0.856
1640.957,673.0,0.849
1641.564,673.5,0.841
1642.169,674.0,0.833
1642.77,674.5,0.824
1643.372,675.0,0.816
1643.976,675.5,0.807
1644.58,676.0,0.799
1645.182,676.5,0.79
1645.781,677.0,0.782
1646.384,677.5,0.774
1646.989,678.0,0.765
1647.587,678.5,0.757
1648.185,679.0,0.748
1648.786,679.5,0.74
1649.391,680.0,0.732
1649.998,680.5,0.723
1650.602,681.0,0.715
1651.207,681.5,0.706
1651.813,682.0,0.698
1652.412,682.5,0.69
1653.007,683.0,0.682
1653.603,683.5,0.674
1654.202,684.0,0.666
1654.808,684.5,0.658
1655.406,685.0,0.65
1655.999,685.5,0.642
1656.598,686.0,0.635
1657.198,686.5,0.627
1657.803,687.0,0.62
1658.402,687.5,0.612
1658.998,688.0,0.605
1659.589,688.5,0.599
1660.185,689.0,0.592
1660.793,689.5,0.585
1661.394,690.0,0.579
1661.99,690.5,0.573
1662.591,691.0,0.567
1663.191,691.5,0.561
1663.789,692.0,0.556
1664.385,692.5,0.551
1664.982,693.0,0.545
1665.582,693.5,0.54
1666.184,694.0,0.536
1666.789,694.5,0.531
1667.388,695.0,0.527
1667.983,695.5,0.523
1668.595,696.0,0.519
1669.2,696.5,0.516
1669.791,697.0,0.512
1670.385,697.5,0.509
1670.981,698.0,0.505
1671.586,698.5,0.503
1672.189,699.0,0.5
1672.786,699.5,0.498
1673.39,700.0,0.495
1673.996,700.5,0.493
1674.595,701.0,0.491
1675.195,701.5,0.488
1675.798,702.0,0.487
1676.399,702.5,0.485
1677.0,703.0,0.484
1677.603,703.5,0.482
1678.204,704.0,0.481
1678.801,704.5,0.479
1679.407,705.0,0.478
1680.017,705.5,0.477
1680.617,706.0,0.476
1681.218,706.5,0.475
1681.82,707.0,0.473
1682.423,707.5,0.473
1683.025,708.0,0.472
1683.625,708.5,0.471
1684.227,709.0,0.47
1684.83,709.5,0.469
1685.433,710.0,0.469
1686.036,710.5,0.468
1686.636,711.0,0.467
1687.24,711.5,0.466
1687.85,712.0,0.465
1688.456,712.5,0.465
1689.06,713.0,0.464
1689.665,713.5,0.463
1690.268,714.0,0.463
1690.869,714.5,0.462
1691.469,715.0,0.461
1692.071,715.5,0.46
1692.68,716.0,0.459
1693.284,716.5,0.459
1693.884,717.0,0.458
1694.489,717.5,0.458
1695.095,718.0,0.457
1695.696,718.5,0.456
1696.299,719.0,0.456
1696.904,719.5,0.455
1697.508,720.0,0.454
1698.113,720.5,0.454
1698.728,721.0,0.453
1699.337,721.5,0.453
1699.94,722.0,0.452
1700.542,722.5,0.451
1701.144,723.0,0.451
1701.748,723.5,0.45
1702.351,724.0,0.45
1702.955,724.5,0.449
1703.561,725.0,0.448
1704.167,725.5,0.448
1704.779,726.0,0.447
1705.382,726.5,0.447
1705.98,727.0,0.446
1706.588,727.5,0.445
1707.194,728.0,0.445
1707.794,728.5,0.444
1708.395,729.0,0.444
1708.995,729.5,0.443
1709.607,730.0,0.442
1710.217,730.5,0.442
1710.825,731.0,0.441
1711.429,731.5,0.441
1712.031,732.0,0.441
1712.636,732.5,0.44
1713.239,733.0,0.44
1713.839,733.5,0.439
1714.446,734.0,0.439
1715.056,734.5,0.438
1715.659,735.0,0.437
1716.264,735.5,0.437
1716.868,736.0,0.436
1717.483,736.5,0.436
1718.099,737.0,0.435
1718.7,737.5,0.434
1719.304,738.0,0.434
1719.909,738.5,0.433
1720.518,739.0,0.433
1721.126,739.5,0.433
1721.732,740.0,0.432
1722.337,740.5,0.432
1722.941,741.0,0.431
1723.545,741.5,0.43
1724.151,742.0,0.43
1724.76,742.5,0.429
1725.368,743.0,0.429
1725.976,743.5,0.428
1726.576,744.0,0.428
1727.178,744.5,0.428
1727.787,745.0,0.427
1728.396,745.5,0.427
1729.005,746.0,0.426
1729.604,746.5,0.425
1730.208,747.0,0.425
1730.825,747.5,0.424
1731.429,748.0,0.424
1732.029,748.5,0.423
1732.638,749.0,0.423
1733.248,749.5,0.423
1733.857,750.0,0.422
1734.461,750.5,0.422
1735.064,751.0,0.421
1735.676,751.5,0.42
1736.286,752.0,0.42
1736.891,752.5,0.42
1737.503,753.0,0.419
1738.114,753.5,0.419
1738.711,754.0,0.418
1739.316,754.5,0.418
1739.928,755.0,0.417
1740.536,755.5,0.417
1741.143,756.0,0.417
1741.744,756.5,0.416
1742.347,757.0,0.416
1742.952,757.5,0.415
1743.552,758.0,0.415
1744.156,758.5,0.415
1744.769,759.0,0.414
1745.379,759.5,0.414
1745.985,760.0,0.413
1746.598,760.5,0.413
1747.208,761.0,0.413
1747.814,761.5,0.412
1748.419,762.0,0.412
1749.025,762.5,0.411
1749.632,763.0,0.411
1750.238,763.5,0.411
1750.844,764.0,0.41
1751.453,764.5,0.41
1752.063,765.0,0.409
1752.672,765.5,0.409
1753.278,766.0,0.409
1753.88,766.5,0.408
1754.491,767.0,0.408
1755.103,767.5,0.408
1755.709,768.0,0.407
1756.314,768.5,0.407
1756.917,769.0,0.406
1757.523,769.5,0.406
1758.132,770.0,0.406
1758.748,770.5,0.405
1759.359,771.0,0.405
1759.967,771.5,0.405
1760.571,772.0,0.404
1761.176,772.5,0.404
1761.781,773.0,0.404
1762.388,773.5,0.404
1762.996,774.0,0.403
1763.607,774.5,0.403
1764.215,775.0,0.403
1764.818,775.5,0.402
1765.429,776.0,0.402
1766.044,776.5,0.402
1766.653,777.0,0.401
1767.259,777.5,0.401
1767.862,778.0,0.401
1768.47,778.5,0.401
1769.079,779.0,0.4
1769.683,779.5,0.4
1770.29,780.0,0.4
1770.898,780.5,0.399
1771.509,781.0,0.399
1772.12,781.5,0.399
1772.727,782.0,0.398
1773.332,782.5,0.398
1773.936,783.0,0.398
1774.544,783.5,0.397
1775.153,784.0,0.397
1775.762,784.5,0.397
1776.369,785.0,0.397
1776.976,785.5,0.396
1777.584,786.0,0.396
1778.193,786.5,0.396
1778.803,787.0,0.395
1779.413,787.5,0.395
1780.022,788.0,0.395
1780.633,788.5,0.394
1781.243,789.0,0.394
1781.852,789.5,0.394
1782.458,790.0,0.394
1783.064,790.5,0.394
1783.676,791.0,0.393
1784.285,791.5,0.393
1784.89,792.0,0.393
1785.496,792.5,0.393
1786.103,793.0,0.392
1786.707,793.5,0.392
1787.316,794.0,0.392
1787.931,794.5,0.392
1788.539,795.0,0.391
1789.145,795.5,0.391
1789.749,796.0,0.391
1790.354,796.5,0.391
1790.959,797.0,0.39
1791.572,797.5,0.39
1792.181,798.0,0.39
1792.781,798.5,0.39
1793.39,799.0,0.39
1794.005,799.5,0.389
1794.609,800.0,0.389
1795.216,800.5,0.389
1795.829,801.0,0.388
1796.44,801.5,0.388
1797.049,802.0,0.388
1797.653,802.5,0.388
1798.257,803.0,0.388
1798.862,803.5,0.387
1799.472,804.0,0.387
1800.082,804.5,0.387
1800.688,805.0,0.387
1801.294,805.5,0.387
1801.902,806.0,0.386
1802.509,806.5,0.386
1803.116,807.0,0.386
1803.72,807.5,0.386
1804.326,808.0,0.386
1804.933,808.5,0.385
1805.543,809.0,0.385
1806.152,809.5,0.385
1806.755,810.0,0.384
1807.363,810.5,0.384
1807.973,811.0,0.384
1808.583,811.5,0.384
1809.192,812.0,0.384
1809.799,812.5,0.383
1810.4,813.0,0.383
1810.999,813.5,0.383
1811.612,814.0,0.383
1812.225,814.5,0.383
1812.838,815.0,0.382
1813.445,815.5,0.382
1814.05,816.0,0.382
1814.661,816.5,0.382
1815.268,817.0,0.382
1815.872,817.5,0.381
1816.48,818.0,0.381
1817.088,818.5,0.381
1817.69,819.0,0.381
1818.296,819.5,0.381
1818.905,820.0,0.38
1819.515,820.5,0.38
1820.123,821.0,0.38
1820.726,821.5,0.38
1821.332,822.0,0.38
1821.94,822.5,0.379
1822.547,823.0,0.379
1823.152,823.5,0.379
1823.755,824.0,0.379
1824.363,824.5,0.379
1824.973,825.0,0.378
1825.585,825.5,0.378
1826.194,826.0,0.378
1826.797,826.5,0.378
1827.406,827.0,0.378
1828.018,827.5,0.378
1828.622,828.0,0.377
1829.228,828.5,0.377
1829.838,829.0,0.377
1830.447,829.5,0.377
1831.056,830.0,0.377
1831.663,830.5,0.376
1832.269,831.0,0.376
1832.873,831.5,0.376
1833.478,832.0,0.376
1834.085,832.5,0.376
1834.698,833.0,0.376
1835.304,833.5,0.376
1835.902,834.0,0.375
1836.515,834.5,0.375
1837.128,835.0,0.375
1837.726,835.5,0.375
1838.333,836.0,0.375
1838.946,836.5,0.375
1839.549,837.0,0.374
1840.154,837.5,0.374
1840.765,838.0,0.374
1841.38,838.5,0.374
1841.996,839.0,0.374
1842.594,839.5,0.373
1843.196,840.0,0.373
1843.81,840.5,0.373
1844.42,841.0,0.373
1845.028,841.5,0.373
1845.634,842.0,0.372
1846.24,842.5,0.372
1846.846,843.0,0.372
1847.454,843.5,0.372
1848.063,844.0,0.372
1848.667,844.5,0.372
1849.274,845.0,0.372
1849.886,845.5,0.371
1850.493,846.0,0.371
1851.098,846.5,0.371
1851.697,847.0,0.371
1852.304,847.5,0.371
1852.92,848.0,0.371
1853.527,848.5,0.37
1854.134,849.0,0.37
1854.75,849.5,0.37
1855.354,850.0,0.37
1855.95,850.5,0.37
1856.56,851.0,0.369
1857.17,851.5,0.369
1857.779,852.0,0.369
1858.386,852.5,0.369
1858.994,853.0,0.369
1859.599,853.5,0.369
1860.206,854.0,0.369
1860.817,854.5,0.368
1861.424,855.0,0.368
1862.029,855.5,0.368
1862.637,856.0,0.368
1863.243,856.5,0.368
1863.846,857.0,0.367
1864.45,857.5,0.367
1865.055,858.0,0.367
1865.662,858.5,0.367
1866.271,859.0,0.367
1866.88,859.5,0.367
1867.49,860.0,0.367
1868.1,860.5,0.366
1868.706,861.0,0.366
1869.311,861.5,0.366
1869.914,862.0,0.366
1870.517,862.5,0.366
1871.119,863.0,0.366
1871.72,863.5,0.365
1872.327,864.0,0.365
1872.939,864.5,0.365
1873.547,865.0,0.365
1874.153,865.5,0.365
1874.752,866.0,0.365
1875.361,866.5,0.365
1875.977,867.0,0.364
1876.582,867.5,0.364
1877.189,868.0,0.364
1877.797,868.5,0.364
1878.403,869.0,0.364
1879.009,869.5,0.364
1879.621,870.0,0.363
1880.23,870.5,0.363
1880.831,871.0,0.363
1881.436,871.5,0.363
1882.044,872.0,0.363
1882.653,872.5,0.363
1883.259,873.0,0.363
1883.862,873.5,0.362
1884.463,874.0,0.362
1885.064,874.5,0.362
1885.672,875.0,0.362
1886.28,875.5,0.362
1886.89,876.0,0.362
1887.493,876.5,0.362
1888.096,877.0,0.361
1888.707,877.5,0.361
1889.312,878.0,0.361
1889.913,878.5,0.361
1890.525,879.0,0.361
1891.137,879.5,0.361
1891.743,880.0,0.36
1892.348,880.5,0.36
1892.952,881.0,0.36
1893.556,881.5,0.36
1894.16,882.0,0.36
1894.764,882.5,0.36
1895.37,883.0,0.36
1895.978,883.5,0.36
1896.581,884.0,0.359
1897.186,884.5,0.359
1897.795,885.0,0.359
1898.4,885.5,0.359
1899.002,886.0,0.359
1899.608,886.5,0.359
1900.214,887.0,0.359
1900.82,887.5,0.358
1901.426,888.0,0.358
1902.03,888.5,0.358
1902.636,889.0,0.358
1903.241,889.5,0.358
1903.845,890.0,0.358
1904.451,890.5,0.358
1905.058,891.0,0.358
1905.663,891.5,0.357
1906.271,892.0,0.357
1906.883,892.5,0.357
1907.488,893.0,0.357
1908.092,893.5,0.357
1908.696,894.0,0.357
1909.301,894.5,0.357
1909.908,895.0,0.357
1910.516,895.5,0.356
1911.123,896.0,0.356
1911.719,896.5,0.356
1912.324,897.0,0.356
1912.937,897.5,0.356
1913.544,898.0,0.356
1914.148,898.5,0.356
1914.749,899.0,0.355
1915.354,899.5,0.355
1915.963,900.0,0.355
1916.566,900.5,0.355
1917.169,901.0,0.355
1917.772,901.5,0.355
1918.374,902.0,0.355
1918.976,902.5,0.355
1919.585,903.0,0.354
1920.193,903.5,0.354
1920.798,904.0,0.354
1921.405,904.5,0.354
1922.012,905.0,0.354
1922.616,905.5,0.354
1923.219,906.0,0.354
1923.821,906.5,0.354
1924.427,907.0,0.354
1925.035,907.5,0.353
1925.646,908.0,0.353
1926.251,908.5,0.353
1926.85,909.0,0.353
1927.455,909.5,0.353
1928.062,910.0,0.353
1928.666,910.5,0.353
1929.269,911.0,0.353
1929.869,911.5,0.352
1930.473,912.0,0.352
1931.078,912.5,0.352
1931.684,913.0,0.352
1932.29,913.5,0.352
1932.897,914.0,0.352
1933.5,914.5,0.352
1934.101,915.0,0.352
1934.698,915.5,0.351
1935.303,916.0,0.351
1935.915,916.5,0.351
1936.522,917.0,0.351
1937.128,917.5,0.351
1937.731,918.0,0.351
1938.334,918.5,0.351
1938.936,919.0,0.35
1939.549,919.5,0.35
1940.161,920.0,0.35
1940.766,920.5,0.35
1941.369,921.0,0.35
1941.971,921.5,0.35
1942.569,922.0,0.35
1943.169,922.5,0.35
1943.776,923.0,0.35
1944.384,923.5,0.35
1944.991,924.0,0.349
1945.588,924.5,0.349
1946.187,925.0,0.349
1946.79,925.5,0.349
1947.396,926.0,0.349
1948.002,926.5,0.349
1948.608,927.0,0.349
1949.214,927.5,0.349
1949.82,928.0,0.348
1950.423,928.5,0.348
1951.023,929.0,0.348
1951.63,929.5,0.348
1952.236,930.0,0.348
1952.841,930.5,0.348
1953.444,931.0,0.348
1954.046,931.5,0.348
1954.651,932.0,0.348
1955.255,932.5,0.348
1955.855,933.0,0.347
1956.462,933.5,0.347
1957.07,934.0,0.347
1957.669,934.5,0.347
1958.268,935.0,0.347
1958.866,935.5,0.347
1959.475,936.0,0.347
1960.086,936.5,0.347
1960.691,937.0,0.347
1961.294,937.5,0.347
1961.895,938.0,0.347
1962.501,938.5,0.346
1963.107,939.0,0.346
1963.712,939.5,0.346
1964.314,940.0,0.346
1964.913,940.5,0.346
1965.517,941.0,0.346
1966.122,941.5,0.346
1966.723,942.0,0.346
1967.328,942.5,0.346
1967.937,943.0,0.346
1968.54,943.5,0.345
1969.143,944.0,0.345
1969.745,944.5,0.345
1970.35,945.0,0.345
1970.959,945.5,0.345
1971.559,946.0,0.345
1972.159,946.5,0.345
1972.76,947.0,0.345
1973.36,947.5,0.345
1973.96,948.0,0.345
1974.569,948.5,0.344
1975.177,949.0,0.344
1975.781,949.5,0.344
1976.386,950.0,0.344
1976.992,950.5,0.344
1977.594,951.0,0.344
1978.196,951.5,0.344
1978.799,952.0,0.344
1979.404,952.5,0.344
1980.01,953.0,0.344
1980.608,953.5,0.343
1981.208,954.0,0.343
1981.811,954.5,0.343
1982.414,955.0,0.343
1983.017,955.5,0.343
1983.615,956.0,0.343
1984.216,956.5,0.343
1984.823,957.0,0.343
1985.427,957.5,0.343
1986.03,958.0,0.343
1986.636,958.5,0.343
1987.239,959.0,0.343
1987.84,959.5,0.342
1988.448,960.0,0.342
1989.056,960.5,0.342
1989.655,961.0,0.342
1990.254,961.5,0.342
1990.854,962.0,0.342
1991.458,962.5,0.342
1992.063,963.0,0.342
1992.666,963.5,0.342
1993.269,964.0,0.342
1993.872,964.5,0.342
1994.472,965.0,0.342
1995.072,965.5,0.341
1995.676,966.0,0.341
1996.283,966.5,0.341
1996.892,967.0,0.341
1997.493,967.5,0.341
1998.093,968.0,0.341
1998.694,968.5,0.341
1999.297,969.0,0.341
1999.902,969.5,0.341
2000.504,970.0,0.341
2001.106,970.5,0.341
2001.715,971.0,0.341
2002.321,971.5,0.341
2002.925,972.0,0.34
2003.526,972.5,0.34
2004.126,973.0,0.34
2004.728,973.5,0.34
2005.333,974.0,0.34
2005.939,974.5,0.34
2006.541,975.0,0.34
2007.142,975.5,0.34
2007.743,976.0,0.34
2008.343,976.5,0.34
2008.944,977.0,0.34
2009.551,977.5,0.34
2010.158,978.0,0.34
2010.763,978.5,0.339
2011.366,979.0,0.339
2011.969,979.5,0.339
2012.564,980.0,0.339
2013.162,980.5,0.339
2013.772,981.0,0.339
2014.379,981.5,0.339
2014.984,982.0,0.339
2015.584,982.5,0.339
2016.187,983.0,0.339
2016.798,983.5,0.339
2017.4,984.0,0.339
2017.998,984.5,0.339
2018.599,985.0,0.339
2019.201,985.5,0.339
2019.802,986.0,0.338
2020.407,986.5,0.338
2021.013,987.0,0.338
2021.619,987.5,0.338
2022.224,988.0,0.338
2022.826,988.5,0.338
2023.426,989.0,0.338
2024.027,989.5,0.338
2024.634,990.0,0.338
2025.24,990.5,0.338
2025.842,991.0,0.338
2026.444,991.5,0.338
2027.046,992.0,0.338
2027.653,992.5,0.338
2028.259,993.0,0.338
2028.865,993.5,0.338
2029.468,994.0,0.338
2030.07,994.5,0.337
2030.671,995.0,0.337
2031.273,995.5,0.337
2031.878,996.0,0.337
2032.479,996.5,0.337
2033.079,997.0,0.337
2033.675,997.5,0.337
2034.278,998.0,0.337
2034.887,998.5,0.337
2035.49,999.0,0.337
2036.091,999.5,0.337
2036.691,1000.0,0.337
2037.295,1000.5,0.337
2037.901,1001.0,0.337
2038.502,1001.5,0.336
2039.104,1002.0,0.336
2039.713,1002.5,0.336
2040.318,1003.0,0.336
2040.918,1003.5,0.336
2041.519,1004.0,0.336
2042.12,1004.5,0.336
2042.723,1005.0,0.336
2043.324,1005.5,0.336
2043.921,1006.0,0.336
2044.529,1006.5,0.336
2045.137,1007.0,0.336
2045.737,1007.5,0.336
2046.338,1008.0,0.336
2046.939,1008.5,0.336
2047.54,1009.0,0.335
2048.143,1009.5,0.335
2048.748,1010.0,0.335
2049.351,1010.5,0.335
2049.953,1011.0,0.335
2050.555,1011.5,0.335
2051.159,1012.0,0.335
2051.764,1012.5,0.335
2052.366,1013.0,0.335
2052.965,1013.5,0.335
2053.567,1014.0,0.335
2054.171,1014.5,0.335
2054.78,1015.0,0.335
2055.379,1015.5,0.335
2055.973,1016.0,0.335
2056.578,1016.5,0.335
2057.184,1017.0,0.335
2057.79,1017.5,0.334
2058.39,1018.0,0.334
2058.986,1018.5,0.334
2059.589,1019.0,0.334
2060.192,1019.5,0.334
2060.791,1020.0,0.334
2061.391,1020.5,0.334
2061.992,1021.0,0.334
2062.593,1021.5,0.334
2063.196,1022.0,0.334
2063.8,1022.5,0.334
2064.404,1023.0,0.334
2065.008,1023.5,0.334
2065.613,1024.0,0.334
2066.216,1024.5,0.334
2066.816,1025.0,0.334
2067.417,1025.5,0.334
2068.018,1026.0,0.334
2068.621,1026.5,0.334
2069.223,1027.0,0.334
2069.823,1027.5,0.334
2070.426,1028.0,0.334
2071.031,1028.5,0.333
2071.634,1029.0,0.333
2072.236,1029.5,0.333
2072.838,1030.0,0.333
2073.432,1030.5,0.333
2074.024,1031.0,0.333
2074.63,1031.5,0.333
2075.234,1032.0,0.333
2075.836,1032.5,0.333
2076.438,1033.0,0.333
2077.04,1033.5,0.333
2077.64,1034.0,0.333
2078.242,1034.5,0.333
2078.846,1035.0,0.333
2079.446,1035.5,0.333
2080.045,1036.0,0.333
2080.652,1036.5,0.332
2081.256,1037.0,0.332
2081.854,1037.5,0.332
2082.452,1038.0,0.332
2083.05,1038.5,0.332
2083.647,1039.0,0.332
2084.248,1039.5,0.332
2084.856,1040.0,0.332
2085.457,1040.5,0.332
2086.056,1041.0,0.332
2086.654,1041.5,0.332
2087.255,1042.0,0.332
2087.859,1042.5,0.332
2088.461,1043.0,0.332
2089.063,1043.5,0.332
2089.658,1044.0,0.332
2090.257,1044.5,0.332
2090.861,1045.0,0.331
2091.466,1045.5,0.331
2092.069,1046.0,0.331
2092.667,1046.5,0.331
2093.268,1047.0,0.331
2093.871,1047.5,0.331
2094.467,1048.0,0.331
2095.062,1048.5,0.331
2095.663,1049.0,0.331
2096.263,1049.5,0.331
2096.864,1050.0,0.331
2097.462,1050.5,0.331
2098.059,1051.0,0.331
2098.653,1051.5,0.331
2099.253,1052.0,0.331
2099.861,1052.5,0.331
2100.465,1053.0,0.331
2101.067,1053.5,0.331
2101.664,1054.0,0.331
2102.261,1054.5,0.331
2102.858,1055.0,0.33
2103.408,1055.5,0.33
2103.944,1056.0,0.33
2104.933,1056.5,0.33
2106.02,1057.0,0.33
2106.939,1057.5,0.33
2107.851,1058.0,0.33
2108.781,1058.5,0.33
2109.727,1059.0,0.33
2110.724,1059.5,0.33
2111.776,1060.0,0.33
2112.896,1060.5,0.33
2114.037,1061.0,0.33
2115.273,1061.5,0.329
2116.545,1062.0,0.329
2117.935,1062.5,0.329
2119.397,1063.0,0.329
2120.948,1063.5,0.329
2122.658,1064.0,0.329
2124.0,1064.384,0.329
2134.0,1066.586,0.328
2144.0,1068.056,0.328
2154.0,1069.062,0.327
2164.0,1069.765,0.327
2174.0,1070.258,0.327
2184.0,1070.633,0.327
2194.0,1070.922,0.326
2204.0,1071.146,0.326
2214.0,1071.324,0.326
2224.0,1071.471,0.325
2234.0,1071.603,0.325
2244.0,1071.714,0.325
2254.0,1071.806,0.324
2264.0,1071.889,0.324
2274.0,1071.955,0.324
2284.0,1072.011,0.324
2294.0,1072.063,0.323
2304.0,1072.119,0.323
2314.0,1072.158,0.323
2324.0,1072.18,0.323
2334.0,1072.22,0.323
2344.0,1072.242,0.322
2354.0,1072.261,0.322
2364.0,1072.285,0.322
2374.0,1072.305,0.322
2384.0,1072.318,0.321
2394.0,1072.326,0.321
2404.0,1072.348,0.321
2414.0,1072.352,0.321
2424.0,1072.356,0.321
